Frequency(Hz),   Magnitude(dB)
   11.804, -24.334887
   11.929, -24.287083
   12.056, -24.178076
   12.184, -24.059296
   12.314, -23.938309
   12.445, -23.815277
   12.578, -23.690395
   12.711, -23.563869
   12.847, -23.435879
   12.983, -23.306494
   13.122, -23.175598
   13.261, -23.043037
   13.402, -22.908836
   13.545, -22.773172
   13.689, -22.636276
   13.835, -22.498348
   13.982, -22.359587
   14.131, -22.220135
   14.281, -22.079975
   14.433, -21.938988
   14.587, -21.797075
   14.742, -21.654312
   14.899, -21.510998
   15.057, -21.367428
   15.217, -21.223789
   15.379, -21.080135
   15.543, -20.936474
   15.708, -20.792873
   15.875, -20.649445
   16.044, -20.506330
   16.215, -20.363718
   16.388, -20.221855
   16.562, -20.081057
   16.738, -19.941486
   16.916, -19.803165
   17.096, -19.666063
   17.278, -19.530329
   17.462, -19.396240
   17.648, -19.264072
   17.836, -19.133970
   18.025, -19.006008
   18.217, -18.880312
   18.411, -18.757229
   18.607, -18.637089
   18.805, -18.520294
   19.005, -18.407225
   19.207, -18.298185
   19.412, -18.193209
   19.618, -18.092228
   19.827, -17.995539
   20.038, -17.903698
   20.251, -17.817238
   20.467, -17.736444
   20.684, -17.661621
   20.905, -17.593136
   21.127, -17.531513
   21.352, -17.477274
   21.579, -17.430773
   21.809, -17.392252
   22.041, -17.361984
   22.275, -17.340397
   22.512, -17.327946
   22.752, -17.325199
   22.994, -17.332857
   23.239, -17.351429
   23.486, -17.379837
   23.736, -17.415852
   23.988, -17.457294
   24.244, -17.503416
   24.501, -17.554150
   24.762, -17.609385
   25.026, -17.668921
   25.292, -17.732622
   25.561, -17.800468
   25.833, -17.872450
   26.108, -17.948481
   26.386, -18.028158
   26.667, -18.111006
   26.950, -18.196901
   27.237, -18.286013
   27.527, -18.378353
   27.820, -18.473564
   28.116, -18.571177
   28.415, -18.670811
   28.717, -18.772251
   29.023, -18.875288
   29.332, -18.979671
   29.644, -19.085081
   29.959, -19.191202
   30.278, -19.297636
   30.600, -19.403738
   30.926, -19.508804
   31.255, -19.612377
   31.587, -19.714218
   31.924, -19.813938
   32.263, -19.910862
   32.607, -20.004253
   32.953, -20.093372
   33.304, -20.177496
   33.658, -20.255857
   34.017, -20.327768
   34.379, -20.392618
   34.744, -20.449696
   35.114, -20.497824
   35.488, -20.538630
   35.865, -20.575150
   36.247, -20.610817
   36.633, -20.646271
   37.022, -20.681520
   37.416, -20.716354
   37.815, -20.750563
   38.217, -20.784317
   38.624, -20.817984
   39.035, -20.851902
   39.450, -20.886114
   39.870, -20.920557
   40.294, -20.955139
   40.723, -20.989906
   41.156, -21.024965
   41.594, -21.060446
   42.036, -21.096317
   42.484, -21.132471
   42.936, -21.168884
   43.393, -21.205713
   43.854, -21.243187
   44.321, -21.281446
   44.793, -21.320536
   45.269, -21.360481
   45.751, -21.401491
   46.238, -21.443848
   46.730, -21.487089
   47.227, -21.530676
   47.730, -21.574478
   48.237, -21.619049
   48.751, -21.664480
   49.269, -21.710653
   49.794, -21.757704
   50.323, -21.805809
   50.859, -21.854969
   51.400, -21.905001
   51.947, -21.955692
   52.500, -22.006811
   53.058, -22.058132
   53.623, -22.109514
   54.194, -22.161310
   54.770, -22.213940
   55.353, -22.267271
   55.942, -22.320488
   56.537, -22.372854
   57.139, -22.424185
   57.747, -22.474371
   58.361, -22.521679
   58.982, -22.564348
   59.610, -22.602001
   60.244, -22.636154
   60.885, -22.667681
   61.533, -22.696024
   62.188, -22.720615
   62.850, -22.741343
   63.518, -22.758200
   64.194, -22.771206
   64.877, -22.780357
   65.568, -22.785675
   66.265, -22.787018
   66.970, -22.784170
   67.683, -22.776968
   68.403, -22.765532
   69.131, -22.749613
   69.867, -22.723976
   70.610, -22.678328
   71.361, -22.608747
   72.121, -22.518841
   72.888, -22.416155
   73.664, -22.303135
   74.448, -22.181896
   75.240, -22.054678
   76.040, -21.923725
   76.849, -21.791145
   77.667, -21.659132
   78.494, -21.530178
   79.329, -21.407253
   80.173, -21.293558
   81.026, -21.191526
   81.888, -21.095638
   82.759, -21.001369
   83.640, -20.907259
   84.530, -20.818604
   85.430, -20.737850
   86.339, -20.665375
   87.257, -20.600765
   88.186, -20.543627
   89.124, -20.494070
   90.072, -20.452507
   91.031, -20.419466
   91.999, -20.396173
   92.978, -20.389580
   93.968, -20.424471
   94.968, -20.517700
   95.978, -20.673378
   96.999, -20.874712
   98.032, -21.109911
   99.075, -21.367239
  100.129, -21.634243
  101.194, -21.897543
  102.271, -22.142700
  103.359, -22.353960
  104.459, -22.509884
  105.571, -22.574244
  106.694, -22.549723
  107.829, -22.463888
  108.977, -22.358852
  110.136, -22.242929
  111.308, -22.120949
  112.492, -21.997931
  113.689, -21.879246
  114.899, -21.770517
  116.122, -21.675365
  117.357, -21.587217
  118.606, -21.501947
  119.868, -21.418343
  121.144, -21.342543
  122.433, -21.275682
  123.735, -21.218134
  125.052, -21.169909
  126.383, -21.131239
  127.727, -21.108011
  129.087, -21.128008
  130.460, -21.199888
  131.848, -21.317713
  133.251, -21.453928
  134.669, -21.599970
  136.102, -21.748194
  137.550, -21.890903
  139.014, -22.022369
  140.493, -22.146227
  141.988, -22.265818
  143.499, -22.383276
  145.026, -22.493406
  146.569, -22.595123
  148.129, -22.687870
  149.705, -22.768690
  151.298, -22.804565
  152.908, -22.702778
  154.535, -22.408958
  156.179, -21.943142
  157.841, -21.394121
  159.520, -20.834042
  161.218, -20.335676
  162.933, -19.976812
  164.667, -19.790493
  166.419, -19.742966
  168.190, -19.779434
  169.979, -19.871008
  171.788, -20.028234
  173.616, -20.245440
  175.463, -20.501886
  177.330, -20.788177
  179.217, -21.095182
  181.124, -21.412910
  183.052, -21.715296
  184.999, -21.975067
  186.968, -22.145344
  188.957, -22.189144
  190.968, -22.109669
  193.000, -21.960096
  195.054, -21.802881
  197.129, -21.695715
  199.227, -21.681711
  201.347, -21.780035
  203.489, -21.973381
  205.654, -22.217022
  207.843, -22.447849
  210.054, -22.595764
  212.289, -22.616135
  214.548, -22.515949
  216.831, -22.350214
  219.138, -22.185907
  221.470, -22.089100
  223.827, -22.093279
  226.208, -22.188625
  228.615, -22.325125
  231.048, -22.454821
  233.506, -22.551502
  235.991, -22.614866
  238.502, -22.658844
  241.040, -22.697596
  243.605, -22.742682
  246.197, -22.802914
  248.816, -22.886183
  251.464, -22.988947
  254.140, -23.094976
  256.844, -23.156769
  259.577, -23.136406
  262.339, -23.036278
  265.130, -22.904512
  267.952, -22.789282
  270.803, -22.711149
  273.684, -22.668074
  276.596, -22.639193
  279.540, -22.599037
  282.514, -22.525032
  285.520, -22.412849
  288.558, -22.284773
  291.629, -22.197351
  294.732, -22.212904
  297.868, -22.338518
  301.037, -22.503920
  304.241, -22.574556
  307.478, -22.472073
  310.750, -22.239178
  314.056, -22.027271
  317.398, -21.966782
  320.775, -22.076073
  324.189, -22.264570
  327.638, -22.400248
  331.124, -22.431625
  334.648, -22.372591
  338.209, -22.257793
  341.807, -22.082352
  345.444, -21.862993
  349.120, -21.683805
  352.835, -21.683840
  356.589, -21.888268
  360.384, -22.171404
  364.218, -22.340031
  368.094, -22.355604
  372.011, -22.290201
  375.969, -22.203360
  379.970, -22.104464
  384.013, -22.017656
  388.099, -21.985504
  392.228, -22.014751
  396.402, -22.060469
  400.620, -22.070692
  404.883, -22.039410
  409.191, -21.989292
  413.545, -21.930559
  417.945, -21.874853
  422.393, -21.857857
  426.887, -21.891119
  431.429, -21.942587
  436.020, -21.961239
  440.660, -21.943806
  445.348, -21.919378
  450.087, -21.907532
  454.876, -21.913593
  459.717, -21.940575
  464.608, -21.979870
  469.552, -22.015017
  474.548, -22.027889
  479.598, -22.001202
  484.701, -21.930111
  489.858, -21.853621
  495.071, -21.820873
  500.339, -21.825705
  505.663, -21.807098
  511.043, -21.760752
  516.481, -21.781120
  521.977, -21.898621
  527.531, -22.035307
  533.144, -22.106056
  538.817, -22.150793
  544.550, -22.228455
  550.345, -22.317047
  556.201, -22.380526
  562.119, -22.430664
  568.100, -22.506596
  574.145, -22.639549
  580.255, -22.814859
  586.429, -22.948570
  592.669, -23.036695
  598.975, -23.247108
  605.349, -23.590261
  611.790, -23.856796
  618.300, -23.960716
  624.879, -24.104856
  631.528, -24.415131
  638.248, -24.721941
  645.039, -24.844852
  651.903, -24.801355
  658.839, -24.669783
  665.850, -24.499296
  672.935, -24.250801
  680.095, -23.909950
  687.332, -23.534206
  694.645, -23.180681
  702.037, -22.927004
  709.507, -22.770784
  717.057, -22.651340
  724.686, -22.570517
  732.398, -22.530073
  740.191, -22.451162
  748.067, -22.315758
  756.027, -22.159346
  764.071, -22.029930
  772.201, -21.965023
  780.418, -21.963337
  788.722, -21.979879
  797.115, -21.874697
  805.597, -21.711611
  814.169, -21.586496
  822.832, -21.537323
  831.587, -21.557648
  840.436, -21.599371
  849.379, -21.591532
  858.417, -21.469282
  867.551, -21.407196
  876.782, -21.424044
  886.111, -21.487259
  895.540, -21.467186
  905.069, -21.454157
  914.700, -21.408770
  924.433, -21.381067
  934.269, -21.326582
  944.210, -21.324381
  954.257, -21.313772
  964.411, -21.252880
  974.673, -21.195772
  985.044, -21.113901
  995.526, -21.056456
 1006.119, -20.989313
 1016.824, -20.930239
 1027.644, -20.864475
 1038.579, -20.786165
 1049.630, -20.723627
 1060.799, -20.686584
 1072.086, -20.655325
 1083.494, -20.620501
 1095.023, -20.562466
 1106.674, -20.490688
 1118.450, -20.483788
 1130.351, -20.501503
 1142.379, -20.501469
 1154.534, -20.475506
 1166.819, -20.415756
 1179.235, -20.366629
 1191.783, -20.277582
 1204.464, -20.234777
 1217.280, -20.175421
 1230.233, -20.102644
 1243.323, -20.076126
 1256.553, -20.082241
 1269.923, -20.105919
 1283.436, -20.077524
 1297.093, -20.039639
 1310.895, -20.038246
 1324.843, -19.982569
 1338.940, -19.910460
 1353.188, -19.828705
 1367.586, -19.824268
 1382.138, -19.801081
 1396.845, -19.766533
 1411.708, -19.697910
 1426.730, -19.641817
 1441.911, -19.547951
 1457.254, -19.477690
 1472.760, -19.450424
 1488.431, -19.443291
 1504.269, -19.373831
 1520.275, -19.287445
 1536.452, -19.216940
 1552.801, -19.180309
 1569.323, -19.135862
 1586.022, -19.097357
 1602.898, -19.047226
 1619.954, -18.984930
 1637.191, -18.898582
 1654.612, -18.844870
 1672.218, -18.765463
 1690.011, -18.712847
 1707.994, -18.618969
 1726.168, -18.564972
 1744.536, -18.495321
 1763.099, -18.424805
 1781.859, -18.350704
 1800.819, -18.273884
 1819.981, -18.218412
 1839.347, -18.143898
 1858.918, -18.050400
 1878.698, -17.945782
 1898.689, -17.842369
 1918.892, -17.751392
 1939.310, -17.647453
 1959.946, -17.524632
 1980.801, -17.402176
 2001.878, -17.282248
 2023.179, -17.175428
 2044.707, -17.056343
 2066.464, -16.955120
 2088.452, -16.820873
 2110.674, -16.684488
 2133.133, -16.533310
 2155.831, -16.394173
 2178.771, -16.241043
 2201.954, -16.092251
 2225.384, -15.947314
 2249.063, -15.777386
 2272.995, -15.601963
 2297.181, -15.442719
 2321.624, -15.304338
 2346.328, -15.143131
 2371.294, -14.961052
 2396.526, -14.784834
 2422.027, -14.621362
 2447.798, -14.462926
 2473.844, -14.302330
 2500.168, -14.154697
 2526.771, -14.005010
 2553.657, -13.864511
 2580.830, -13.740953
 2608.291, -13.619497
 2636.045, -13.490137
 2664.094, -13.355838
 2692.442, -13.225317
 2721.091, -13.109100
 2750.045, -12.989629
 2779.307, -12.909818
 2808.881, -12.867727
 2838.769, -12.884400
 2868.975, -12.922885
 2899.503, -12.979617
 2930.355, -13.046164
 2961.536, -13.131636
 2993.049, -13.245037
 3024.896, -13.385072
 3057.083, -13.527650
 3089.612, -13.654327
 3122.488, -13.784792
 3155.713, -13.930198
 3189.292, -14.083362
 3223.228, -14.231069
 3257.525, -14.360854
 3292.187, -14.489853
 3327.218, -14.630556
 3362.621, -14.773599
 3398.402, -14.917809
 3434.563, -15.054741
 3471.108, -15.209932
 3508.043, -15.353035
 3545.371, -15.488799
 3583.096, -15.591529
 3621.222, -15.672946
 3659.754, -15.756888
 3698.696, -15.829549
 3738.052, -15.879150
 3777.827, -15.918146
 3818.026, -15.970591
 3858.652, -16.030500
 3899.710, -16.078869
 3941.206, -16.126595
 3983.142, -16.193190
 4025.525, -16.274773
 4068.360, -16.355536
 4111.649, -16.427683
 4155.400, -16.511110
 4199.616, -16.603006
 4244.302, -16.705950
 4289.464, -16.776352
 4335.106, -16.813118
 4381.235, -16.811428
 4427.854, -16.772264
 4474.969, -16.710283
 4522.585, -16.614693
 4570.708, -16.503241
 4619.343, -16.384838
 4668.496, -16.255905
 4718.171, -16.113312
 4768.376, -15.947760
 4819.114, -15.780239
 4870.393, -15.625950
 4922.216, -15.487464
 4974.592, -15.375013
 5027.524, -15.289805
 5081.021, -15.285564
 5135.085, -15.347442
 5189.726, -15.487244
 5244.948, -15.668207
 5300.757, -15.893658
 5357.161, -16.160635
 5414.164, -16.439655
 5471.774, -16.742292
 5529.997, -17.035904
 5588.839, -17.337288
 5648.308, -17.629602
 5708.409, -17.910736
 5769.150, -18.158422
 5830.538, -18.389290
 5892.578, -18.608406
 5955.279, -18.823683
 6018.646, -19.018560
 6082.688, -19.224651
 6147.412, -19.431221
 6212.824, -19.620262
 6278.932, -19.746510
 6345.744, -19.852768
 6413.267, -19.942917
 6481.507, -20.020599
 6550.475, -20.056740
 6620.176, -20.057859
 6690.619, -20.053532
 6761.811, -20.045439
 6833.760, -20.028875
 6906.476, -19.987743
 6979.965, -19.889799
 7054.236, -19.776569
 7129.297, -19.636395
 7205.157, -19.482992
 7281.825, -19.272165
 7359.308, -19.027250
 7437.615, -18.741991
 7516.756, -18.369871
 7596.739, -17.890253
 7677.572, -17.308620
 7759.267, -16.646383
 7841.830, -15.936152
 7925.271, -15.209271
 8009.601, -14.625390
 8094.828, -14.341791
 8180.962, -14.526183
 8268.013, -15.169785
 8355.989, -16.266872
 8444.902, -17.644867
 8534.761, -19.194548
 8625.576, -20.720768
 8717.357, -22.238039
 8810.115, -23.734007
 8903.860, -25.160313
 8998.603, -26.561546
 9094.354, -28.018000
 9191.123, -29.627462
 9288.922, -31.353506
 9387.762, -32.722851
 9487.653, -32.699646
 9588.607, -31.480639
 9690.636, -30.324688
 9793.750, -29.758940
 9897.962, -29.672979
10003.282, -29.820833
10109.723, -29.962557
10217.297, -30.021128
10326.015, -30.018246
10435.890, -30.078814
10546.934, -30.252293
10659.160, -30.528902
10772.580, -30.866116
10887.206, -31.224207
11003.053, -31.527359
11120.132, -31.807293
11238.457, -32.059803
11358.041, -32.377037
11478.897, -32.628494
11601.040, -32.873852
11724.481, -33.091354
11849.237, -33.304310
11975.320, -33.666092
12102.745, -33.881954
12231.525, -34.019367
12361.677, -33.964928
12493.212, -33.990040
12626.147, -34.030937
12760.497, -33.991116
12896.277, -33.921467
13033.501, -33.644413
13172.186, -33.241924
13312.346, -32.900017
13453.997, -32.604519
13597.155, -32.362808
13741.838, -31.961954
13888.059, -31.443638
14035.836, -30.552643
14185.187, -29.517170
14336.125, -28.340578
14488.670, -27.049524
14642.839, -25.488638
14798.647, -23.539999
14956.113, -21.285940
15115.256, -19.685154
15276.091, -19.122227
15438.638, -19.981600
15602.915, -22.049852
15768.939, -24.774279
15936.730, -27.078123
16106.307, -28.754311
16277.688, -29.616871
16450.893, -29.810846
16625.939, -29.471134
16802.850, -28.995413
16981.643, -28.311947
17162.336, -27.564875
17344.955, -26.887989
17529.516, -26.271461
17716.039, -26.001789
17904.549, -26.195915
18095.064, -27.053888
18287.607, -28.334358
18482.199, -29.803604
18678.859, -31.118629
18877.615, -32.116337
19078.484, -33.122124
19281.490, -33.984360
19486.656, -34.911076
19694.008, -35.486263
19903.563, -35.955956
20115.350, -39.872627
20329.389, -40.901825
20545.705, -42.317284
20764.324, -43.622723
20985.270, -43.377563
21208.564, -41.347980
21434.236, -39.093266
21662.311, -36.926479
21892.811, -35.575401
22125.764, -34.881649
22361.195, -35.221672
22599.131, -36.256630
22839.600, -38.061264
23082.627, -40.523129
23328.240, -44.075603
23576.467, -49.471443
23827.334, -53.640671
