Frequency(Hz),   Magnitude(dB)
   11.804, -15.489462
   11.929, -15.637305
   12.056, -15.873488
   12.184, -16.120024
   12.314, -16.365219
   12.445, -16.609161
   12.578, -16.851959
   12.711, -17.093695
   12.847, -17.334452
   12.983, -17.574186
   13.122, -17.812649
   13.261, -18.049570
   13.402, -18.284832
   13.545, -18.518497
   13.689, -18.750645
   13.835, -18.981331
   13.982, -19.210573
   14.131, -19.438381
   14.281, -19.664557
   14.433, -19.888807
   14.587, -20.110836
   14.742, -20.330555
   14.899, -20.548035
   15.057, -20.763371
   15.217, -20.976549
   15.379, -21.187386
   15.543, -21.395658
   15.708, -21.601179
   15.875, -21.803829
   16.044, -22.003456
   16.215, -22.199989
   16.388, -22.393391
   16.562, -22.583670
   16.738, -22.770695
   16.916, -22.954153
   17.096, -23.133699
   17.278, -23.309130
   17.462, -23.480341
   17.648, -23.647245
   17.836, -23.809607
   18.025, -23.967089
   18.217, -24.119417
   18.411, -24.266481
   18.607, -24.408192
   18.805, -24.544445
   19.005, -24.675154
   19.207, -24.800117
   19.412, -24.918844
   19.618, -25.030743
   19.827, -25.135517
   20.038, -25.233171
   20.251, -25.323608
   20.467, -25.406504
   20.684, -25.481503
   20.905, -25.548315
   21.127, -25.606750
   21.352, -25.656605
   21.579, -25.697508
   21.809, -25.728901
   22.041, -25.750275
   22.275, -25.761198
   22.512, -25.761288
   22.752, -25.750196
   22.994, -25.727709
   23.239, -25.693190
   23.486, -25.643015
   23.736, -25.571770
   23.988, -25.474873
   24.244, -25.351078
   24.501, -25.200768
   24.762, -25.024412
   25.026, -24.822470
   25.292, -24.595530
   25.561, -24.344400
   25.833, -24.069979
   26.108, -23.773161
   26.386, -23.454641
   26.667, -23.115145
   26.950, -22.755865
   27.237, -22.378353
   27.527, -21.984186
   27.820, -21.574617
   28.116, -21.150961
   28.415, -20.714764
   28.717, -20.267851
   29.023, -19.812206
   29.332, -19.349916
   29.644, -18.883169
   29.959, -18.414320
   30.278, -17.945784
   30.600, -17.479958
   30.926, -17.019314
   31.255, -16.566809
   31.587, -16.125790
   31.924, -15.699664
   32.263, -15.291788
   32.607, -14.905672
   32.953, -14.545048
   33.304, -14.213912
   33.658, -13.916488
   34.017, -13.657312
   34.379, -13.441297
   34.744, -13.276692
   35.114, -13.200318
   35.488, -13.215078
   35.865, -13.303802
   36.247, -13.422106
   36.633, -13.560461
   37.022, -13.717467
   37.416, -13.891870
   37.815, -14.082376
   38.217, -14.287925
   38.624, -14.507578
   39.035, -14.740271
   39.450, -14.984521
   39.870, -15.238633
   40.294, -15.500781
   40.723, -15.769111
   41.156, -16.041750
   41.594, -16.316660
   42.036, -16.591522
   42.484, -16.863825
   42.936, -17.130913
   43.393, -17.390196
   43.854, -17.638966
   44.321, -17.874254
   44.793, -18.092796
   45.269, -18.291100
   45.751, -18.465672
   46.238, -18.612751
   46.730, -18.727375
   47.227, -18.813620
   47.730, -18.881769
   48.237, -18.944021
   48.751, -19.003633
   49.269, -19.060946
   49.794, -19.116426
   50.323, -19.170607
   50.859, -19.223858
   51.400, -19.276379
   51.947, -19.328415
   52.500, -19.380192
   53.058, -19.431961
   53.623, -19.484116
   54.194, -19.537571
   54.770, -19.593319
   55.353, -19.651857
   55.942, -19.713066
   56.537, -19.776896
   57.139, -19.843914
   57.747, -19.914757
   58.361, -19.988033
   58.982, -20.062412
   59.610, -20.138079
   60.244, -20.217255
   60.885, -20.300966
   61.533, -20.388390
   62.188, -20.478632
   62.850, -20.571247
   63.518, -20.665829
   64.194, -20.761986
   64.877, -20.859285
   65.568, -20.957233
   66.265, -21.055183
   66.970, -21.152367
   67.683, -21.248028
   68.403, -21.341619
   69.131, -21.432369
   69.867, -21.516005
   70.610, -21.584978
   71.361, -21.636410
   72.121, -21.673161
   72.888, -21.700947
   73.664, -21.721727
   74.448, -21.737198
   75.240, -21.749168
   76.040, -21.759417
   76.849, -21.769545
   77.667, -21.781240
   78.494, -21.796415
   79.329, -21.817438
   80.173, -21.846889
   81.026, -21.886793
   81.888, -21.934080
   82.759, -21.989023
   83.640, -22.053947
   84.530, -22.134426
   85.430, -22.229864
   86.339, -22.337128
   87.257, -22.452047
   88.186, -22.570242
   89.124, -22.687540
   90.072, -22.799805
   91.031, -22.902729
   91.999, -22.991417
   92.978, -23.051714
   93.968, -23.041697
   94.968, -22.935398
   95.978, -22.732418
   96.999, -22.462475
   98.032, -22.143618
   99.075, -21.793598
  100.129, -21.431368
  101.194, -21.076925
  102.271, -20.751251
  103.359, -20.476624
  104.459, -20.279697
  105.571, -20.197954
  106.694, -20.235851
  107.829, -20.375780
  108.977, -20.578476
  110.136, -20.824568
  111.308, -21.095091
  112.492, -21.369469
  113.689, -21.625559
  114.899, -21.839659
  116.122, -21.989000
  117.357, -22.065275
  118.606, -22.070032
  119.868, -22.014675
  121.144, -21.910828
  122.433, -21.777124
  123.735, -21.633621
  125.052, -21.501110
  126.383, -21.401615
  127.727, -21.361794
  129.087, -21.410114
  130.460, -21.537451
  131.848, -21.715109
  133.251, -21.907276
  134.669, -22.109804
  136.102, -22.320923
  137.550, -22.539230
  139.014, -22.764433
  140.493, -22.992479
  141.988, -23.224604
  143.499, -23.463999
  145.026, -23.716074
  146.569, -23.977388
  148.129, -24.241959
  149.705, -24.499294
  151.298, -24.687910
  152.908, -24.661015
  154.535, -24.349075
  156.179, -23.806517
  157.841, -23.167936
  159.520, -22.517687
  161.218, -21.937487
  162.933, -21.510960
  164.667, -21.263395
  166.419, -21.148109
  168.190, -21.098557
  169.979, -21.083529
  171.788, -21.112953
  173.616, -21.180918
  175.463, -21.270424
  177.330, -21.365723
  179.217, -21.453163
  181.124, -21.524109
  183.052, -21.577251
  184.999, -21.619137
  186.968, -21.661221
  188.957, -21.712870
  190.968, -21.778458
  193.000, -21.853876
  195.054, -21.933268
  197.129, -22.012259
  199.227, -22.091877
  201.347, -22.173187
  203.489, -22.255545
  205.654, -22.332579
  207.843, -22.399193
  210.054, -22.429415
  212.289, -22.369514
  214.548, -22.192682
  216.831, -21.933334
  219.138, -21.678963
  221.470, -21.536388
  223.827, -21.598074
  226.208, -21.881847
  228.615, -22.310047
  231.048, -22.736879
  233.506, -23.022541
  235.991, -23.090435
  238.502, -22.966185
  241.040, -22.758755
  243.605, -22.599258
  246.197, -22.593916
  248.816, -22.777349
  251.464, -23.104141
  254.140, -23.461779
  256.844, -23.716747
  259.577, -23.816605
  262.339, -23.797806
  265.130, -23.740170
  267.952, -23.671326
  270.803, -23.596474
  273.684, -23.516129
  276.596, -23.427567
  279.540, -23.323677
  282.514, -23.192900
  285.520, -23.032814
  288.558, -22.857454
  291.629, -22.697449
  294.732, -22.568872
  297.868, -22.467445
  301.037, -22.373629
  304.241, -22.273100
  307.478, -22.159277
  310.750, -22.036789
  314.056, -21.933554
  317.398, -21.922598
  320.775, -22.030573
  324.189, -22.203373
  327.638, -22.284576
  331.124, -22.193293
  334.648, -21.979830
  338.209, -21.788652
  341.807, -21.688942
  345.444, -21.676121
  349.120, -21.704691
  352.835, -21.757254
  356.589, -21.826803
  360.384, -21.892769
  364.218, -21.926432
  368.094, -21.922312
  372.011, -21.898003
  375.969, -21.873674
  379.970, -21.852770
  384.013, -21.836058
  388.099, -21.827261
  392.228, -21.830788
  396.402, -21.855324
  400.620, -21.915386
  404.883, -22.002684
  409.191, -22.070450
  413.545, -22.073553
  417.945, -22.034565
  422.393, -22.027506
  426.887, -22.083170
  431.429, -22.148457
  436.020, -22.146509
  440.660, -22.082699
  445.348, -22.044510
  450.087, -22.078611
  454.876, -22.157782
  459.717, -22.223282
  464.608, -22.245230
  469.552, -22.182625
  474.548, -22.041040
  479.598, -21.891911
  484.701, -21.795261
  489.858, -21.747715
  495.071, -21.709417
  500.339, -21.686449
  505.663, -21.711559
  511.043, -21.800663
  516.481, -21.951694
  521.977, -22.120684
  527.531, -22.189621
  533.144, -22.121000
  538.817, -21.991320
  544.550, -21.947149
  550.345, -22.055225
  556.201, -22.285206
  562.119, -22.510544
  568.100, -22.638126
  574.145, -22.741459
  580.255, -22.921814
  586.429, -23.137140
  592.669, -23.278309
  598.975, -23.325872
  605.349, -23.371469
  611.790, -23.523849
  618.300, -23.782074
  624.879, -24.056334
  631.528, -24.229603
  638.248, -24.331078
  645.039, -24.424473
  651.903, -24.503866
  658.839, -24.490530
  665.850, -24.329952
  672.935, -24.071501
  680.095, -23.792534
  687.332, -23.510031
  694.645, -23.219782
  702.037, -22.941853
  709.507, -22.726200
  717.057, -22.630083
  724.686, -22.555677
  732.398, -22.439455
  740.191, -22.292423
  748.067, -22.201880
  756.027, -22.175882
  764.071, -22.186485
  772.201, -22.153784
  780.418, -22.077854
  788.722, -22.003893
  797.115, -21.940634
  805.597, -21.863398
  814.169, -21.753494
  822.832, -21.677876
  831.587, -21.585562
  840.436, -21.508209
  849.379, -21.464722
  858.417, -21.440624
  867.551, -21.471397
  876.782, -21.450584
  886.111, -21.436991
  895.540, -21.400524
  905.069, -21.368603
  914.700, -21.374828
  924.433, -21.362509
  934.269, -21.334335
  944.210, -21.228508
  954.257, -21.147823
  964.411, -21.116676
  974.673, -21.069611
  985.044, -20.988588
  995.526, -20.915131
 1006.119, -20.821085
 1016.824, -20.741678
 1027.644, -20.727766
 1038.579, -20.799498
 1049.630, -20.848539
 1060.799, -20.825878
 1072.086, -20.763586
 1083.494, -20.706512
 1095.023, -20.655926
 1106.674, -20.593990
 1118.450, -20.522326
 1130.351, -20.465454
 1142.379, -20.437172
 1154.534, -20.410856
 1166.819, -20.361883
 1179.235, -20.337828
 1191.783, -20.326229
 1204.464, -20.306684
 1217.280, -20.252478
 1230.233, -20.226278
 1243.323, -20.195688
 1256.553, -20.150200
 1269.923, -20.084089
 1283.436, -20.031424
 1297.093, -19.983925
 1310.895, -19.921106
 1324.843, -19.892609
 1338.940, -19.866819
 1353.188, -19.847454
 1367.586, -19.790394
 1382.138, -19.772852
 1396.845, -19.761696
 1411.708, -19.724537
 1426.730, -19.654415
 1441.911, -19.559252
 1457.254, -19.478920
 1472.760, -19.400566
 1488.431, -19.369085
 1504.269, -19.341196
 1520.275, -19.323685
 1536.452, -19.271719
 1552.801, -19.244654
 1569.323, -19.195629
 1586.022, -19.136162
 1602.898, -19.022297
 1619.954, -18.946163
 1637.191, -18.890543
 1654.612, -18.861626
 1672.218, -18.790268
 1690.011, -18.725016
 1707.994, -18.644346
 1726.168, -18.566097
 1744.536, -18.508177
 1763.099, -18.410366
 1781.859, -18.324507
 1800.819, -18.248106
 1819.981, -18.192348
 1839.347, -18.110338
 1858.918, -18.022734
 1878.698, -17.925192
 1898.689, -17.820539
 1918.892, -17.694172
 1939.310, -17.578007
 1959.946, -17.470568
 1980.801, -17.396492
 2001.878, -17.306252
 2023.179, -17.184908
 2044.707, -17.041380
 2066.464, -16.896717
 2088.452, -16.743921
 2110.674, -16.608995
 2133.133, -16.509764
 2155.831, -16.400572
 2178.771, -16.250580
 2201.954, -16.075438
 2225.384, -15.917855
 2249.063, -15.758827
 2272.995, -15.591463
 2297.181, -15.410303
 2321.624, -15.255453
 2346.328, -15.115065
 2371.294, -14.965820
 2396.526, -14.780180
 2422.027, -14.593162
 2447.798, -14.414546
 2473.844, -14.271336
 2500.168, -14.142653
 2526.771, -14.013116
 2553.657, -13.879521
 2580.830, -13.742937
 2608.291, -13.621643
 2636.045, -13.498892
 2664.094, -13.373490
 2692.442, -13.241196
 2721.091, -13.111055
 2750.045, -13.006366
 2779.307, -12.933784
 2808.881, -12.897959
 2838.769, -12.897075
 2868.975, -12.917792
 2899.503, -12.972054
 2930.355, -13.043055
 2961.536, -13.141659
 2993.049, -13.243816
 3024.896, -13.361201
 3057.083, -13.491353
 3089.612, -13.633537
 3122.488, -13.780157
 3155.713, -13.927880
 3189.292, -14.067740
 3223.228, -14.208953
 3257.525, -14.350469
 3292.187, -14.494354
 3327.218, -14.627476
 3362.621, -14.775458
 3398.402, -14.940335
 3434.563, -15.092611
 3471.108, -15.224810
 3508.043, -15.350145
 3545.371, -15.489123
 3583.096, -15.601066
 3621.222, -15.689816
 3659.754, -15.761905
 3698.696, -15.822482
 3738.052, -15.877605
 3777.827, -15.929380
 3818.026, -15.982531
 3858.652, -16.030529
 3899.710, -16.084381
 3941.206, -16.140280
 3983.142, -16.198111
 4025.525, -16.268602
 4068.360, -16.361410
 4111.649, -16.456226
 4155.400, -16.544279
 4199.616, -16.623358
 4244.302, -16.689289
 4289.464, -16.740208
 4335.106, -16.771643
 4381.235, -16.778450
 4427.854, -16.747641
 4474.969, -16.683542
 4522.585, -16.602562
 4570.708, -16.504776
 4619.343, -16.396721
 4668.496, -16.274626
 4718.171, -16.115658
 4768.376, -15.947578
 4819.114, -15.781279
 4870.393, -15.623880
 4922.216, -15.474399
 4974.592, -15.357513
 5027.524, -15.296147
 5081.021, -15.286108
 5135.085, -15.336808
 5189.726, -15.451929
 5244.948, -15.639444
 5300.757, -15.885790
 5357.161, -16.172670
 5414.164, -16.466549
 5471.774, -16.754232
 5529.997, -17.049685
 5588.839, -17.344803
 5648.308, -17.639473
 5708.409, -17.910994
 5769.150, -18.163754
 5830.538, -18.389061
 5892.578, -18.605652
 5955.279, -18.827955
 6018.646, -19.041019
 6082.688, -19.236286
 6147.412, -19.406492
 6212.824, -19.571653
 6278.932, -19.720922
 6345.744, -19.845730
 6413.267, -19.942926
 6481.507, -20.012589
 6550.475, -20.056644
 6620.176, -20.075283
 6690.619, -20.075953
 6761.811, -20.053984
 6833.760, -20.021399
 6906.476, -19.959305
 6979.965, -19.874969
 7054.236, -19.759308
 7129.297, -19.624817
 7205.157, -19.465197
 7281.825, -19.266405
 7359.308, -19.021833
 7437.615, -18.725807
 7516.756, -18.355566
 7596.739, -17.880974
 7677.572, -17.295193
 7759.267, -16.617210
 7841.830, -15.890299
 7925.271, -15.174138
 8009.601, -14.603904
 8094.828, -14.340914
 8180.962, -14.528491
 8268.013, -15.192492
 8355.989, -16.298534
 8444.902, -17.692158
 8534.761, -19.227163
 8625.576, -20.746822
 8717.357, -22.249474
 8810.115, -23.721437
 8903.860, -25.156193
 8998.603, -26.572065
 9094.354, -28.047440
 9191.123, -29.660030
 9288.922, -31.360535
 9387.762, -32.712017
 9487.653, -32.659153
 9588.607, -31.392691
 9690.636, -30.261488
 9793.750, -29.714136
 9897.962, -29.685310
10003.282, -29.836168
10109.723, -29.981144
10217.297, -30.038513
10326.015, -30.083506
10435.890, -30.173904
10546.934, -30.337103
10659.160, -30.587582
10772.580, -30.900887
10887.206, -31.222662
11003.053, -31.532022
11120.132, -31.828074
11238.457, -32.109833
11358.041, -32.385487
11478.897, -32.616642
11601.040, -32.854671
11724.481, -33.041904
11849.237, -33.252621
11975.320, -33.399895
12102.745, -33.520866
12231.525, -33.617004
12361.677, -33.701458
12493.212, -33.739445
12626.147, -33.684662
12760.497, -33.568882
12896.277, -33.394409
13033.501, -33.161610
13172.186, -32.855942
13312.346, -32.493046
13453.997, -32.089745
13597.155, -31.652235
13741.838, -31.199663
13888.059, -30.686926
14035.836, -30.036114
14185.187, -29.131571
14336.125, -27.980185
14488.670, -26.539938
14642.839, -24.841494
14798.647, -22.844809
14956.113, -20.807301
15115.256, -19.200497
15276.091, -18.641298
15438.638, -19.359852
15602.915, -21.442972
15768.939, -24.187216
15936.730, -26.655588
16106.307, -28.266287
16277.688, -29.043236
16450.893, -29.229963
16625.939, -29.012732
16802.850, -28.553032
16981.643, -27.852085
17162.336, -27.041451
17344.955, -26.208620
17529.516, -25.625500
17716.039, -25.339500
17904.549, -25.522001
18095.064, -26.103609
18287.607, -27.043131
18482.199, -28.161310
18678.859, -29.306410
18877.615, -30.510654
19078.484, -31.497187
19281.490, -32.353615
19486.656, -33.107006
19694.008, -33.835445
19903.563, -34.491150
20115.350, -38.561668
20329.389, -39.479286
20545.705, -40.639038
20764.324, -41.775253
20985.270, -41.471107
21208.564, -39.595261
21434.236, -37.286072
21662.311, -35.431728
21892.811, -34.156761
22125.764, -33.588009
22361.195, -33.703365
22599.131, -34.657726
22839.600, -36.443844
23082.627, -39.310219
23328.240, -43.079102
23576.467, -47.771034
23827.334, -51.008804
