Frequency(Hz),   Magnitude(dB)
   11.804, -22.565496
   11.929, -22.538044
   12.056, -22.464361
   12.184, -22.383432
   12.314, -22.300993
   12.445, -22.217224
   12.578, -22.132320
   12.711, -22.046469
   12.847, -21.959848
   12.983, -21.872520
   13.122, -21.784369
   13.261, -21.695229
   13.402, -21.605106
   13.545, -21.514189
   13.689, -21.422688
   13.835, -21.330784
   13.982, -21.238657
   14.131, -21.146450
   14.281, -21.054127
   14.433, -20.961538
   14.587, -20.868568
   14.742, -20.775282
   14.899, -20.681931
   15.057, -20.588810
   15.217, -20.496069
   15.379, -20.403742
   15.543, -20.311789
   15.708, -20.220259
   15.875, -20.129225
   16.044, -20.038792
   16.215, -19.949089
   16.388, -19.860346
   16.562, -19.772820
   16.738, -19.686636
   16.916, -19.601749
   17.096, -19.518091
   17.278, -19.435743
   17.462, -19.354927
   17.648, -19.275850
   17.836, -19.198591
   18.025, -19.123148
   18.217, -19.049589
   18.411, -18.978157
   18.607, -18.909124
   18.805, -18.842789
   19.005, -18.779425
   19.207, -18.719280
   19.412, -18.662245
   19.618, -18.608175
   19.827, -18.557243
   20.038, -18.509882
   20.251, -18.466509
   20.467, -18.427277
   20.684, -18.392345
   20.905, -18.361959
   21.127, -18.336472
   21.352, -18.316269
   21.579, -18.301535
   21.809, -18.292339
   22.041, -18.288774
   22.275, -18.291077
   22.512, -18.299511
   22.752, -18.314465
   22.994, -18.336390
   23.239, -18.365786
   23.486, -18.403063
   23.736, -18.448576
   23.988, -18.502617
   24.244, -18.565285
   24.501, -18.636532
   24.762, -18.716162
   25.026, -18.803907
   25.292, -18.899519
   25.561, -19.002880
   25.833, -19.113867
   26.108, -19.232269
   26.386, -19.357523
   26.667, -19.489027
   26.950, -19.626497
   27.237, -19.769892
   27.527, -19.919052
   27.820, -20.073400
   28.116, -20.232229
   28.415, -20.394939
   28.717, -20.561039
   29.023, -20.730032
   29.332, -20.901373
   29.644, -21.074436
   29.959, -21.248535
   30.278, -21.422918
   30.600, -21.596560
   30.926, -21.768316
   31.255, -21.937321
   31.587, -22.102848
   31.924, -22.264013
   32.263, -22.419626
   32.607, -22.568388
   32.953, -22.708967
   33.304, -22.840012
   33.658, -22.960106
   34.017, -23.067865
   34.379, -23.161926
   34.744, -23.240442
   35.114, -23.297173
   35.488, -23.333887
   35.865, -23.357056
   36.247, -23.377092
   36.633, -23.395866
   37.022, -23.413397
   37.416, -23.429396
   37.815, -23.443577
   38.217, -23.456026
   38.624, -23.467024
   39.035, -23.476824
   39.450, -23.485373
   39.870, -23.492502
   40.294, -23.498026
   40.723, -23.501884
   41.156, -23.504089
   41.594, -23.504627
   42.036, -23.503344
   42.484, -23.500034
   42.936, -23.494505
   43.393, -23.486797
   43.854, -23.476978
   44.321, -23.465055
   44.793, -23.450901
   45.269, -23.434389
   45.751, -23.415546
   46.238, -23.394531
   46.730, -23.371387
   47.227, -23.346395
   47.730, -23.320007
   48.237, -23.292709
   48.751, -23.264479
   49.269, -23.235216
   49.794, -23.205124
   50.323, -23.174446
   50.859, -23.143250
   51.400, -23.111399
   51.947, -23.078796
   52.500, -23.045296
   53.058, -23.010748
   53.623, -22.975136
   54.194, -22.938898
   54.770, -22.902588
   55.353, -22.866188
   55.942, -22.829025
   56.537, -22.790506
   57.139, -22.750589
   57.747, -22.709518
   58.361, -22.667810
   58.982, -22.625946
   59.610, -22.584215
   60.244, -22.542589
   60.885, -22.500826
   61.533, -22.458359
   62.188, -22.414705
   62.850, -22.369867
   63.518, -22.323944
   64.194, -22.277021
   64.877, -22.229239
   65.568, -22.180712
   66.265, -22.131414
   66.970, -22.081255
   67.683, -22.030174
   68.403, -21.978416
   69.131, -21.926287
   69.867, -21.874119
   70.610, -21.821489
   71.361, -21.767426
   72.121, -21.711117
   72.888, -21.652395
   73.664, -21.591608
   74.448, -21.529211
   75.240, -21.465689
   76.040, -21.401398
   76.849, -21.336414
   77.667, -21.270805
   78.494, -21.204775
   79.329, -21.138899
   80.173, -21.073793
   81.026, -21.012131
   81.888, -20.978937
   82.759, -21.000196
   83.640, -21.090994
   84.530, -21.240995
   85.430, -21.437723
   86.339, -21.670424
   87.257, -21.927164
   88.186, -22.195152
   89.124, -22.461224
   90.072, -22.711542
   91.031, -22.931358
   91.999, -23.104513
   92.978, -23.204102
   93.968, -23.178320
   94.968, -23.003834
   95.978, -22.692717
   96.999, -22.287294
   98.032, -21.813227
   99.075, -21.295818
  100.129, -20.761860
  101.194, -20.239504
  102.271, -19.758228
  103.359, -19.349466
  104.459, -19.055037
  105.571, -18.937950
  106.694, -18.975380
  107.829, -19.108595
  108.977, -19.252077
  110.136, -19.398319
  111.308, -19.547277
  112.492, -19.698746
  113.689, -19.852554
  114.899, -20.008575
  116.122, -20.166481
  117.357, -20.325592
  118.606, -20.486141
  119.868, -20.648870
  121.144, -20.814837
  122.433, -20.983925
  123.735, -21.155611
  125.052, -21.328972
  126.383, -21.502333
  127.727, -21.663908
  129.087, -21.756622
  130.460, -21.743969
  131.848, -21.623985
  133.251, -21.445955
  134.669, -21.238737
  136.102, -21.029362
  137.550, -20.846601
  139.014, -20.721348
  140.493, -20.678255
  141.988, -20.736629
  143.499, -20.897003
  145.026, -21.142298
  146.569, -21.434721
  148.129, -21.729656
  149.705, -21.977798
  151.298, -22.122011
  152.908, -22.096632
  154.535, -21.869064
  156.179, -21.463797
  157.841, -20.957329
  159.520, -20.437780
  161.218, -19.996407
  162.933, -19.734379
  164.667, -19.731441
  166.419, -19.990835
  168.190, -20.459566
  169.979, -21.046078
  171.788, -21.675268
  173.616, -22.245600
  175.463, -22.642876
  177.330, -22.846378
  179.217, -22.911293
  181.124, -22.919325
  183.052, -22.895887
  184.999, -22.860630
  186.968, -22.823778
  188.957, -22.788242
  190.968, -22.755831
  193.000, -22.732735
  195.054, -22.724569
  197.129, -22.736298
  199.227, -22.790100
  201.347, -22.913410
  203.489, -23.114023
  205.654, -23.359905
  207.843, -23.592010
  210.054, -23.714968
  212.289, -23.653456
  214.548, -23.413023
  216.831, -23.081530
  219.138, -22.749300
  221.470, -22.473154
  223.827, -22.269775
  226.208, -22.133265
  228.615, -22.043772
  231.048, -21.995035
  233.506, -21.996807
  235.991, -22.076031
  238.502, -22.240171
  241.040, -22.454752
  243.605, -22.650928
  246.197, -22.762535
  248.816, -22.783787
  251.464, -22.750175
  254.140, -22.710579
  256.844, -22.678587
  259.577, -22.660084
  262.339, -22.653988
  265.130, -22.651598
  267.952, -22.622265
  270.803, -22.507730
  273.684, -22.287319
  276.596, -22.010654
  279.540, -21.799334
  282.514, -21.736486
  285.520, -21.819359
  288.558, -21.971491
  291.629, -22.101421
  294.732, -22.180384
  297.868, -22.219576
  301.037, -22.249308
  304.241, -22.282122
  307.478, -22.321573
  310.750, -22.365139
  314.056, -22.398155
  317.398, -22.381477
  320.775, -22.300682
  324.189, -22.187113
  327.638, -22.114927
  331.124, -22.112135
  334.648, -22.159922
  338.209, -22.207096
  341.807, -22.228750
  345.444, -22.227106
  349.120, -22.222403
  352.835, -22.229265
  356.589, -22.249500
  360.384, -22.273533
  364.218, -22.292070
  368.094, -22.300625
  372.011, -22.297039
  375.969, -22.275467
  379.970, -22.236996
  384.013, -22.190977
  388.099, -22.149193
  392.228, -22.117691
  396.402, -22.106140
  400.620, -22.136162
  404.883, -22.199284
  409.191, -22.233719
  413.545, -22.193707
  417.945, -22.086721
  422.393, -21.957678
  426.887, -21.822884
  431.429, -21.722612
  436.020, -21.709240
  440.660, -21.773079
  445.348, -21.839842
  450.087, -21.850550
  454.876, -21.841562
  459.717, -21.867046
  464.608, -21.927599
  469.552, -21.985434
  474.548, -22.006060
  479.598, -21.960775
  484.701, -21.840094
  489.858, -21.753494
  495.071, -21.835522
  500.339, -22.046757
  505.663, -22.195711
  511.043, -22.184946
  516.481, -22.125435
  521.977, -22.120626
  527.531, -22.178263
  533.144, -22.272587
  538.817, -22.349072
  544.550, -22.378773
  550.345, -22.377768
  556.201, -22.384722
  562.119, -22.384726
  568.100, -22.368561
  574.145, -22.419222
  580.255, -22.581886
  586.429, -22.854080
  592.669, -23.132626
  598.975, -23.314228
  605.349, -23.418009
  611.790, -23.533987
  618.300, -23.761684
  624.879, -24.059566
  631.528, -24.336281
  638.248, -24.548334
  645.039, -24.682957
  651.903, -24.751364
  658.839, -24.725010
  665.850, -24.575981
  672.935, -24.321802
  680.095, -24.004669
  687.332, -23.671803
  694.645, -23.367716
  702.037, -23.125406
  709.507, -22.927597
  717.057, -22.725231
  724.686, -22.531683
  732.398, -22.361254
  740.191, -22.197514
  748.067, -22.066486
  756.027, -21.975945
  764.071, -21.886478
  772.201, -21.852842
  780.418, -21.861399
  788.722, -21.869129
  797.115, -21.829760
  805.597, -21.753582
  814.169, -21.695530
  822.832, -21.647329
  831.587, -21.657145
  840.436, -21.671316
  849.379, -21.619064
  858.417, -21.557354
  867.551, -21.534006
  876.782, -21.488255
  886.111, -21.391243
  895.540, -21.281181
  905.069, -21.202654
  914.700, -21.222507
  924.433, -21.206802
  934.269, -21.184570
  944.210, -21.112341
  954.257, -21.088991
  964.411, -21.061096
  974.673, -21.059855
  985.044, -21.033401
  995.526, -21.007322
 1006.119, -20.940437
 1016.824, -20.893332
 1027.644, -20.827415
 1038.579, -20.776314
 1049.630, -20.744875
 1060.799, -20.745684
 1072.086, -20.768116
 1083.494, -20.746262
 1095.023, -20.643538
 1106.674, -20.530399
 1118.450, -20.491531
 1130.351, -20.513510
 1142.379, -20.516260
 1154.534, -20.475878
 1166.819, -20.419399
 1179.235, -20.369509
 1191.783, -20.320660
 1204.464, -20.241692
 1217.280, -20.150902
 1230.233, -20.118027
 1243.323, -20.127977
 1256.553, -20.118242
 1269.923, -20.069708
 1283.436, -20.048695
 1297.093, -20.036930
 1310.895, -20.019735
 1324.843, -19.953272
 1338.940, -19.898472
 1353.188, -19.821934
 1367.586, -19.769575
 1382.138, -19.708269
 1396.845, -19.653816
 1411.708, -19.599510
 1426.730, -19.556339
 1441.911, -19.520370
 1457.254, -19.494379
 1472.760, -19.478596
 1488.431, -19.428108
 1504.269, -19.370226
 1520.275, -19.300119
 1536.452, -19.251949
 1552.801, -19.205057
 1569.323, -19.165436
 1586.022, -19.120703
 1602.898, -19.043669
 1619.954, -18.969137
 1637.191, -18.906956
 1654.612, -18.867033
 1672.218, -18.816313
 1690.011, -18.728230
 1707.994, -18.632435
 1726.168, -18.540691
 1744.536, -18.474197
 1763.099, -18.416212
 1781.859, -18.366859
 1800.819, -18.298717
 1819.981, -18.204126
 1839.347, -18.093229
 1858.918, -17.995430
 1878.698, -17.923046
 1898.689, -17.849245
 1918.892, -17.761683
 1939.310, -17.650295
 1959.946, -17.555779
 1980.801, -17.444643
 2001.878, -17.312012
 2023.179, -17.170517
 2044.707, -17.023870
 2066.464, -16.893188
 2088.452, -16.758350
 2110.674, -16.646275
 2133.133, -16.508648
 2155.831, -16.356560
 2178.771, -16.208323
 2201.954, -16.068542
 2225.384, -15.923482
 2249.063, -15.765951
 2272.995, -15.599884
 2297.181, -15.432552
 2321.624, -15.260813
 2346.328, -15.094418
 2371.294, -14.934902
 2396.526, -14.761927
 2422.027, -14.620780
 2447.798, -14.460837
 2473.844, -14.316044
 2500.168, -14.162308
 2526.771, -14.027478
 2553.657, -13.898900
 2580.830, -13.765482
 2608.291, -13.629559
 2636.045, -13.485092
 2664.094, -13.348151
 2692.442, -13.221302
 2721.091, -13.110979
 2750.045, -13.011182
 2779.307, -12.938333
 2808.881, -12.897863
 2838.769, -12.896770
 2868.975, -12.930648
 2899.503, -12.990489
 2930.355, -13.065762
 2961.536, -13.155258
 2993.049, -13.263844
 3024.896, -13.390765
 3057.083, -13.525743
 3089.612, -13.652973
 3122.488, -13.787806
 3155.713, -13.928805
 3189.292, -14.077735
 3223.228, -14.228265
 3257.525, -14.367187
 3292.187, -14.502203
 3327.218, -14.628286
 3362.621, -14.767076
 3398.402, -14.915263
 3434.563, -15.060921
 3471.108, -15.209808
 3508.043, -15.352072
 3545.371, -15.495084
 3583.096, -15.597117
 3621.222, -15.684752
 3659.754, -15.761838
 3698.696, -15.836167
 3738.052, -15.889097
 3777.827, -15.936543
 3818.026, -15.986193
 3858.652, -16.038988
 3899.710, -16.082550
 3941.206, -16.133556
 3983.142, -16.195078
 4025.525, -16.273666
 4068.360, -16.364262
 4111.649, -16.454224
 4155.400, -16.540903
 4199.616, -16.622614
 4244.302, -16.702278
 4289.464, -16.757965
 4335.106, -16.779167
 4381.235, -16.782951
 4427.854, -16.757931
 4474.969, -16.705772
 4522.585, -16.616800
 4570.708, -16.517851
 4619.343, -16.406782
 4668.496, -16.277878
 4718.171, -16.114504
 4768.376, -15.938938
 4819.114, -15.774307
 4870.393, -15.620943
 4922.216, -15.481790
 4974.592, -15.362682
 5027.524, -15.292724
 5081.021, -15.285355
 5135.085, -15.340814
 5189.726, -15.460188
 5244.948, -15.640284
 5300.757, -15.884150
 5357.161, -16.174940
 5414.164, -16.468781
 5471.774, -16.768585
 5529.997, -17.064533
 5588.839, -17.359680
 5648.308, -17.643431
 5708.409, -17.911070
 5769.150, -18.159710
 5830.538, -18.393171
 5892.578, -18.612843
 5955.279, -18.832895
 6018.646, -19.033075
 6082.688, -19.235704
 6147.412, -19.427626
 6212.824, -19.598604
 6278.932, -19.742352
 6345.744, -19.860798
 6413.267, -19.949707
 6481.507, -20.010452
 6550.475, -20.037571
 6620.176, -20.054026
 6690.619, -20.045483
 6761.811, -20.032068
 6833.760, -19.995907
 6906.476, -19.939869
 6979.965, -19.852692
 7054.236, -19.745909
 7129.297, -19.614517
 7205.157, -19.458778
 7281.825, -19.260530
 7359.308, -19.031685
 7437.615, -18.751385
 7516.756, -18.367382
 7596.739, -17.879295
 7677.572, -17.281879
 7759.267, -16.617306
 7841.830, -15.887829
 7925.271, -15.173604
 8009.601, -14.598506
 8094.828, -14.329260
 8180.962, -14.524419
 8268.013, -15.189173
 8355.989, -16.303427
 8444.902, -17.680542
 8534.761, -19.216301
 8625.576, -20.738144
 8717.357, -22.243780
 8810.115, -23.729897
 8903.860, -25.160122
 8998.603, -26.574821
 9094.354, -28.036606
 9191.123, -29.612089
 9288.922, -31.319546
 9387.762, -32.648960
 9487.653, -32.613148
 9588.607, -31.371471
 9690.636, -30.245457
 9793.750, -29.703608
 9897.962, -29.677328
10003.282, -29.847517
10109.723, -29.978436
10217.297, -30.024370
10326.015, -30.061924
10435.890, -30.141155
10546.934, -30.311335
10659.160, -30.568966
10772.580, -30.887859
10887.206, -31.205658
11003.053, -31.528151
11120.132, -31.834234
11238.457, -32.125683
11358.041, -32.383110
11478.897, -32.616287
11601.040, -32.842064
11724.481, -33.052341
11849.237, -33.258045
11975.320, -33.395229
12102.745, -33.500381
12231.525, -33.568520
12361.677, -33.614338
12493.212, -33.648998
12626.147, -33.656181
12760.497, -33.576065
12896.277, -33.412140
13033.501, -33.166958
13172.186, -32.874100
13312.346, -32.511269
13453.997, -32.113251
13597.155, -31.687654
13741.838, -31.237209
13888.059, -30.703815
14035.836, -30.051973
14185.187, -29.147516
14336.125, -27.977591
14488.670, -26.548712
14642.839, -24.860596
14798.647, -22.843969
14956.113, -20.768887
15115.256, -19.146099
15276.091, -18.598173
15438.638, -19.336716
15602.915, -21.434322
15768.939, -24.174103
15936.730, -26.653223
16106.307, -28.299656
16277.688, -29.065437
16450.893, -29.164913
16625.939, -28.900217
16802.850, -28.446115
16981.643, -27.799793
17162.336, -27.054173
17344.955, -26.304407
17529.516, -25.705408
17716.039, -25.394804
17904.549, -25.545881
18095.064, -26.220739
18287.607, -27.237499
18482.199, -28.299030
18678.859, -29.309376
18877.615, -30.412090
19078.484, -31.616053
19281.490, -32.556568
19486.656, -33.312946
19694.008, -33.873058
19903.563, -34.398998
20115.350, -38.494244
20329.389, -39.439373
20545.705, -40.666992
20764.324, -41.918087
20985.270, -42.003803
21208.564, -39.935188
21434.236, -37.522896
21662.311, -35.562191
21892.811, -34.289505
22125.764, -33.592102
22361.195, -33.786079
22599.131, -34.688179
22839.600, -36.569664
23082.627, -39.069794
23328.240, -42.840958
23576.467, -47.000092
23827.334, -49.837513
