Frequency(Hz),   Magnitude(dB)
   11.804, -16.868780
   11.929, -16.894009
   12.056, -16.911926
   12.184, -16.927528
   12.314, -16.941629
   12.445, -16.954391
   12.578, -16.965942
   12.711, -16.976460
   12.847, -16.986065
   12.983, -16.994801
   13.122, -17.002474
   13.261, -17.008902
   13.402, -17.014032
   13.545, -17.018005
   13.689, -17.020985
   13.835, -17.023104
   13.982, -17.024475
   14.131, -17.025204
   14.281, -17.025158
   14.433, -17.024160
   14.587, -17.022018
   14.742, -17.018730
   14.899, -17.014481
   15.057, -17.009480
   15.217, -17.003828
   15.379, -16.997456
   15.543, -16.990265
   15.708, -16.982191
   15.875, -16.973240
   16.044, -16.963411
   16.215, -16.952759
   16.388, -16.941406
   16.562, -16.929506
   16.738, -16.917070
   16.916, -16.903948
   17.096, -16.889965
   17.278, -16.875090
   17.462, -16.859400
   17.648, -16.842989
   17.836, -16.825792
   18.025, -16.807684
   18.217, -16.788589
   18.411, -16.768599
   18.607, -16.747831
   18.805, -16.726433
   19.005, -16.704515
   19.207, -16.682146
   19.412, -16.659042
   19.618, -16.634880
   19.827, -16.609631
   20.038, -16.583546
   20.251, -16.556833
   20.467, -16.529446
   20.684, -16.501314
   20.905, -16.472445
   21.127, -16.442989
   21.352, -16.413059
   21.579, -16.382608
   21.809, -16.351440
   22.041, -16.319380
   22.275, -16.286386
   22.512, -16.252439
   22.752, -16.217621
   22.994, -16.182077
   23.239, -16.145918
   23.486, -16.108675
   23.736, -16.069597
   23.988, -16.028070
   24.244, -15.983993
   24.501, -15.937461
   24.762, -15.888469
   25.026, -15.836951
   25.292, -15.782911
   25.561, -15.726494
   25.833, -15.667860
   26.108, -15.607134
   26.386, -15.544112
   26.667, -15.478588
   26.950, -15.410695
   27.237, -15.340866
   27.527, -15.269443
   27.820, -15.196395
   28.116, -15.121594
   28.415, -15.045065
   28.717, -14.967015
   29.023, -14.887680
   29.332, -14.807280
   29.644, -14.726018
   29.959, -14.644112
   30.278, -14.561746
   30.600, -14.478916
   30.926, -14.395555
   31.255, -14.311932
   31.587, -14.228539
   31.924, -14.145776
   32.263, -14.063808
   32.607, -13.982782
   32.953, -13.902901
   33.304, -13.824422
   33.658, -13.747640
   34.017, -13.672962
   34.379, -13.600951
   34.744, -13.532821
   35.114, -13.475596
   35.488, -13.430904
   35.865, -13.396546
   36.247, -13.365191
   36.633, -13.335451
   37.022, -13.307273
   37.416, -13.280470
   37.815, -13.254845
   38.217, -13.230605
   38.624, -13.208139
   39.035, -13.187813
   39.450, -13.169679
   39.870, -13.153701
   40.294, -13.139798
   40.723, -13.128043
   41.156, -13.118567
   41.594, -13.111485
   42.036, -13.106787
   42.484, -13.104393
   42.936, -13.104252
   43.393, -13.106549
   43.854, -13.111502
   44.321, -13.119273
   44.793, -13.129876
   45.269, -13.143348
   45.751, -13.159877
   46.238, -13.180002
   46.730, -13.206391
   47.227, -13.240166
   47.730, -13.280458
   48.237, -13.324114
   48.751, -13.369555
   49.269, -13.416471
   49.794, -13.464913
   50.323, -13.514984
   50.859, -13.566604
   51.400, -13.619487
   51.947, -13.673326
   52.500, -13.727803
   53.058, -13.782548
   53.623, -13.837343
   54.194, -13.892373
   54.770, -13.947940
   55.353, -14.003759
   55.942, -14.058884
   56.537, -14.112404
   57.139, -14.163963
   57.747, -14.213502
   58.361, -14.261897
   58.982, -14.310449
   59.610, -14.360014
   60.244, -14.410514
   60.885, -14.461398
   61.533, -14.512076
   62.188, -14.562065
   62.850, -14.611364
   63.518, -14.660046
   64.194, -14.708223
   64.877, -14.756018
   65.568, -14.803525
   66.265, -14.850722
   66.970, -14.897492
   67.683, -14.943811
   68.403, -14.989873
   69.131, -15.035913
   69.867, -15.081173
   70.610, -15.123882
   71.361, -15.163478
   72.121, -15.200812
   72.888, -15.237362
   73.664, -15.273507
   74.448, -15.309566
   75.240, -15.345895
   76.040, -15.382692
   76.849, -15.419905
   77.667, -15.457425
   78.494, -15.495279
   79.329, -15.533841
   80.173, -15.573553
   81.026, -15.614620
   81.888, -15.656443
   82.759, -15.698529
   83.640, -15.740899
   84.530, -15.784462
   85.430, -15.829775
   86.339, -15.876719
   87.257, -15.924462
   88.186, -15.972159
   89.124, -16.019449
   90.072, -16.066292
   91.031, -16.112682
   91.999, -16.158846
   92.978, -16.203083
   93.968, -16.239233
   94.968, -16.265457
   95.978, -16.283920
   96.999, -16.300327
   98.032, -16.315437
   99.075, -16.329664
  100.129, -16.343592
  101.194, -16.357859
  102.271, -16.373066
  103.359, -16.389833
  104.459, -16.408428
  105.571, -16.427670
  106.694, -16.446779
  107.829, -16.465792
  108.977, -16.486002
  110.136, -16.507885
  111.308, -16.531368
  112.492, -16.556265
  113.689, -16.582396
  114.899, -16.609709
  116.122, -16.639584
  117.357, -16.679276
  118.606, -16.732403
  119.868, -16.798811
  121.144, -16.872509
  122.433, -16.951094
  123.735, -17.032209
  125.052, -17.112949
  126.383, -17.190046
  127.727, -17.259888
  129.087, -17.320406
  130.460, -17.372631
  131.848, -17.419931
  133.251, -17.465624
  134.669, -17.511206
  136.102, -17.557348
  137.550, -17.605244
  139.014, -17.657631
  140.493, -17.716610
  141.988, -17.784521
  143.499, -17.862345
  145.026, -17.949606
  146.569, -18.042950
  148.129, -18.137651
  149.705, -18.228275
  151.298, -18.306828
  152.908, -18.365210
  154.535, -18.402220
  156.179, -18.422110
  157.841, -18.432247
  159.520, -18.436800
  161.218, -18.439228
  162.933, -18.437983
  164.667, -18.426653
  166.419, -18.398399
  168.190, -18.361788
  169.979, -18.336870
  171.788, -18.344303
  173.616, -18.386900
  175.463, -18.468300
  177.330, -18.585819
  179.217, -18.725817
  181.124, -18.861078
  183.052, -18.973988
  184.999, -19.056070
  186.968, -19.099365
  188.957, -19.103836
  190.968, -19.079302
  193.000, -19.041538
  195.054, -19.003618
  197.129, -18.977896
  199.227, -18.974201
  201.347, -18.992369
  203.489, -19.024954
  205.654, -19.061972
  207.843, -19.100080
  210.054, -19.139057
  212.289, -19.179770
  214.548, -19.222616
  216.831, -19.266413
  219.138, -19.310141
  221.470, -19.359217
  223.827, -19.425709
  226.208, -19.515915
  228.615, -19.618950
  231.048, -19.714390
  233.506, -19.789938
  235.991, -19.850965
  238.502, -19.908562
  241.040, -19.968714
  243.605, -20.030251
  246.197, -20.090816
  248.816, -20.151112
  251.464, -20.212172
  254.140, -20.274590
  256.844, -20.338871
  259.577, -20.406799
  262.339, -20.479315
  265.130, -20.554268
  267.952, -20.620226
  270.803, -20.661570
  273.684, -20.675037
  276.596, -20.673355
  279.540, -20.677488
  282.514, -20.695370
  285.520, -20.725103
  288.558, -20.759209
  291.629, -20.793495
  294.732, -20.827148
  297.868, -20.860161
  301.037, -20.892534
  304.241, -20.923698
  307.478, -20.952497
  310.750, -20.977562
  314.056, -20.996550
  317.398, -21.001616
  320.775, -20.989370
  324.189, -20.969452
  327.638, -20.972063
  331.124, -21.018862
  334.648, -21.099989
  338.209, -21.165073
  341.807, -21.170506
  345.444, -21.119032
  349.120, -21.054228
  352.835, -21.008638
  356.589, -20.989458
  360.384, -20.991394
  364.218, -21.015158
  368.094, -21.057701
  372.011, -21.106062
  375.969, -21.142368
  379.970, -21.161623
  384.013, -21.178499
  388.099, -21.217033
  392.228, -21.281185
  396.402, -21.336420
  400.620, -21.336706
  404.883, -21.283451
  409.191, -21.228632
  413.545, -21.212214
  417.945, -21.222282
  422.393, -21.218924
  426.887, -21.186735
  431.429, -21.147766
  436.020, -21.131323
  440.660, -21.135319
  445.348, -21.127104
  450.087, -21.088011
  454.876, -21.051119
  459.717, -21.059742
  464.608, -21.112169
  469.552, -21.168516
  474.548, -21.194321
  479.598, -21.174929
  484.701, -21.110514
  489.858, -21.026594
  495.071, -20.959419
  500.339, -20.939188
  505.663, -20.990000
  511.043, -21.087992
  516.481, -21.167364
  521.977, -21.188839
  527.531, -21.192392
  533.144, -21.218901
  538.817, -21.232319
  544.550, -21.207813
  550.345, -21.226368
  556.201, -21.340363
  562.119, -21.477438
  568.100, -21.538626
  574.145, -21.555326
  580.255, -21.606201
  586.429, -21.689339
  592.669, -21.771017
  598.975, -21.854801
  605.349, -21.949713
  611.790, -22.053312
  618.300, -22.114965
  624.879, -22.082409
  631.528, -21.973181
  638.248, -21.870054
  645.039, -21.879507
  651.903, -21.981493
  658.839, -22.110521
  665.850, -22.166542
  672.935, -22.158125
  680.095, -22.181969
  687.332, -22.242569
  694.645, -22.285896
  702.037, -22.279659
  709.507, -22.274321
  717.057, -22.309057
  724.686, -22.378494
  732.398, -22.464737
  740.191, -22.461767
  748.067, -22.416008
  756.027, -22.390001
  764.071, -22.448278
  772.201, -22.487894
  780.418, -22.484158
  788.722, -22.455677
  797.115, -22.434074
  805.597, -22.402948
  814.169, -22.352917
  822.832, -22.303362
  831.587, -22.321398
  840.436, -22.399628
  849.379, -22.479841
  858.417, -22.513899
  867.551, -22.483141
  876.782, -22.420538
  886.111, -22.396597
  895.540, -22.449966
  905.069, -22.484535
  914.700, -22.472269
  924.433, -22.406458
  934.269, -22.324116
  944.210, -22.207731
  954.257, -22.120152
  964.411, -22.089863
  974.673, -22.050446
  985.044, -22.020512
  995.526, -21.976570
 1006.119, -21.987209
 1016.824, -21.985737
 1027.644, -21.965244
 1038.579, -21.893162
 1049.630, -21.814173
 1060.799, -21.795965
 1072.086, -21.830805
 1083.494, -21.847193
 1095.023, -21.807325
 1106.674, -21.726231
 1118.450, -21.638344
 1130.351, -21.567549
 1142.379, -21.495264
 1154.534, -21.423344
 1166.819, -21.334717
 1179.235, -21.302641
 1191.783, -21.273781
 1204.464, -21.297018
 1217.280, -21.277525
 1230.233, -21.240215
 1243.323, -21.203836
 1256.553, -21.152102
 1269.923, -21.134275
 1283.436, -21.067562
 1297.093, -21.086897
 1310.895, -21.061977
 1324.843, -21.047890
 1338.940, -20.991535
 1353.188, -21.001028
 1367.586, -20.992071
 1382.138, -20.966108
 1396.845, -20.878181
 1411.708, -20.806709
 1426.730, -20.777481
 1441.911, -20.767328
 1457.254, -20.730474
 1472.760, -20.710848
 1488.431, -20.715034
 1504.269, -20.732864
 1520.275, -20.705206
 1536.452, -20.626480
 1552.801, -20.541307
 1569.323, -20.456072
 1586.022, -20.419540
 1602.898, -20.367197
 1619.954, -20.280764
 1637.191, -20.196009
 1654.612, -20.152481
 1672.218, -20.156340
 1690.011, -20.139124
 1707.994, -20.035070
 1726.168, -19.921478
 1744.536, -19.820929
 1763.099, -19.719179
 1781.859, -19.565008
 1800.819, -19.384895
 1819.981, -19.179783
 1839.347, -18.931671
 1858.918, -18.657824
 1878.698, -18.383137
 1898.689, -18.082123
 1918.892, -17.789692
 1939.310, -17.574059
 1959.946, -17.395733
 1980.801, -17.191051
 2001.878, -17.016802
 2023.179, -16.868021
 2044.707, -16.711103
 2066.464, -16.502716
 2088.452, -16.294245
 2110.674, -16.191477
 2133.133, -16.027433
 2155.831, -15.849434
 2178.771, -15.612485
 2201.954, -15.460089
 2225.384, -15.296422
 2249.063, -15.117014
 2272.995, -14.916834
 2297.181, -14.694828
 2321.624, -14.464390
 2346.328, -14.265303
 2371.294, -14.103174
 2396.526, -13.917238
 2422.027, -13.677405
 2447.798, -13.510005
 2473.844, -13.399200
 2500.168, -13.320433
 2526.771, -13.174226
 2553.657, -13.017476
 2580.830, -12.936176
 2608.291, -12.852943
 2636.045, -12.767242
 2664.094, -12.680274
 2692.442, -12.618418
 2721.091, -12.563875
 2750.045, -12.491248
 2779.307, -12.445168
 2808.881, -12.392511
 2838.769, -12.337783
 2868.975, -12.313983
 2899.503, -12.347341
 2930.355, -12.358278
 2961.536, -12.387369
 2993.049, -12.431219
 3024.896, -12.524228
 3057.083, -12.592067
 3089.612, -12.666969
 3122.488, -12.758276
 3155.713, -12.917062
 3189.292, -13.091922
 3223.228, -13.297765
 3257.525, -13.475997
 3292.187, -13.669321
 3327.218, -13.884716
 3362.621, -14.119721
 3398.402, -14.373986
 3434.563, -14.654865
 3471.108, -14.986448
 3508.043, -15.307402
 3545.371, -15.626519
 3583.096, -15.919507
 3621.222, -16.254877
 3659.754, -16.551357
 3698.696, -16.845776
 3738.052, -17.118908
 3777.827, -17.365719
 3818.026, -17.608631
 3858.652, -17.848814
 3899.710, -18.072744
 3941.206, -18.280621
 3983.142, -18.480978
 4025.525, -18.748909
 4068.360, -18.961441
 4111.649, -19.171556
 4155.400, -19.372620
 4199.616, -19.555077
 4244.302, -19.704865
 4289.464, -19.808712
 4335.106, -19.873344
 4381.235, -19.846096
 4427.854, -19.769958
 4474.969, -19.652111
 4522.585, -19.526661
 4570.708, -19.343006
 4619.343, -19.157074
 4668.496, -18.935081
 4718.171, -18.675529
 4768.376, -18.423861
 4819.114, -18.170862
 4870.393, -17.977043
 4922.216, -17.759783
 4974.592, -17.645569
 5027.524, -17.546171
 5081.021, -17.535492
 5135.085, -17.545164
 5189.726, -17.584269
 5244.948, -17.704807
 5300.757, -17.910154
 5357.161, -18.205999
 5414.164, -18.473375
 5471.774, -18.744598
 5529.997, -19.017010
 5588.839, -19.290003
 5648.308, -19.579485
 5708.409, -19.862774
 5769.150, -20.130430
 5830.538, -20.343092
 5892.578, -20.556927
 5955.279, -20.745813
 6018.646, -20.926624
 6082.688, -21.129473
 6147.412, -21.363756
 6212.824, -21.522480
 6278.932, -21.628357
 6345.744, -21.702389
 6413.267, -21.769432
 6481.507, -21.801844
 6550.475, -21.779743
 6620.176, -21.749067
 6690.619, -21.679556
 6761.811, -21.583420
 6833.760, -21.449516
 6906.476, -21.258219
 6979.965, -20.979877
 7054.236, -20.581642
 7129.297, -20.146992
 7205.157, -19.698895
 7281.825, -19.252272
 7359.308, -18.757608
 7437.615, -18.190548
 7516.756, -17.513700
 7596.739, -16.745863
 7677.572, -15.870584
 7759.267, -14.895494
 7841.830, -13.824802
 7925.271, -12.727277
 8009.601, -11.636117
 8094.828, -10.589378
 8180.962, -9.591987
 8268.013, -8.818161
 8355.989, -8.315022
 8444.902, -8.255523
 8534.761, -8.575422
 8625.576, -9.231529
 8717.357, -10.062079
 8810.115, -10.974236
 8903.860, -11.928539
 8998.603, -12.832460
 9094.354, -13.729174
 9191.123, -14.553229
 9288.922, -15.347551
 9387.762, -16.086784
 9487.653, -16.849176
 9588.607, -17.533791
 9690.636, -18.195915
 9793.750, -18.805742
 9897.962, -19.392427
10003.282, -19.937277
10109.723, -20.480021
10217.297, -20.967735
10326.015, -21.433651
10435.890, -21.833403
10546.934, -22.186134
10659.160, -22.507090
10772.580, -22.775829
10887.206, -22.963394
11003.053, -23.053638
11120.132, -23.094286
11238.457, -23.037350
11358.041, -22.845270
11478.897, -22.469400
11601.040, -21.919060
11724.481, -21.189699
11849.237, -20.273867
11975.320, -19.135929
12102.745, -17.814604
12231.525, -16.420788
12361.677, -15.425099
12493.212, -15.213138
12626.147, -15.908724
12760.497, -17.455708
12896.277, -19.406914
13033.501, -21.433168
13172.186, -23.138165
13312.346, -24.727257
13453.997, -26.074566
13597.155, -27.341293
13741.838, -28.458746
13888.059, -29.519791
14035.836, -30.480612
14185.187, -31.344877
14336.125, -32.039650
14488.670, -32.608692
14642.839, -33.073399
14798.647, -33.505821
14956.113, -33.861275
15115.256, -34.108990
15276.091, -34.392200
15438.638, -34.795864
15602.915, -35.493217
15768.939, -36.373543
15936.730, -37.092609
16106.307, -37.323597
16277.688, -37.019775
16450.893, -36.347275
16625.939, -35.278179
16802.850, -34.283710
16981.643, -33.615921
17162.336, -33.284698
17344.955, -33.304329
17529.516, -33.930096
17716.039, -35.500900
17904.549, -38.015209
18095.064, -40.842567
18287.607, -43.545685
18482.199, -45.813431
18678.859, -47.768181
18877.615, -49.223881
19078.484, -50.898987
19281.490, -52.409405
19486.656, -53.556606
19694.008, -54.246372
19903.563, -54.359325
20115.350, -57.746170
20329.389, -57.362282
20545.705, -57.102757
20764.324, -56.411331
20985.270, -55.686588
21208.564, -54.931622
21434.236, -54.579514
21662.311, -54.158401
21892.811, -53.794983
22125.764, -53.390484
22361.195, -52.916164
22599.131, -52.993069
22839.600, -53.753426
23082.627, -55.865929
23328.240, -58.598259
23576.467, -62.190456
23827.334, -63.887234
