Frequency(Hz),   Magnitude(dB)
   11.804, -14.904087
   11.929, -14.897120
   12.056, -14.858912
   12.184, -14.815360
   12.314, -14.770323
   12.445, -14.723956
   12.578, -14.676465
   12.711, -14.628008
   12.847, -14.578752
   12.983, -14.528743
   13.122, -14.477850
   13.261, -14.425894
   13.402, -14.372851
   13.545, -14.318906
   13.689, -14.264246
   13.835, -14.209040
   13.982, -14.153429
   14.131, -14.097568
   14.281, -14.041350
   14.433, -13.984649
   14.587, -13.927297
   14.742, -13.869344
   14.899, -13.811030
   15.057, -13.752604
   15.217, -13.694198
   15.379, -13.635811
   15.543, -13.577379
   15.708, -13.518914
   15.875, -13.460457
   16.044, -13.402086
   16.215, -13.343893
   16.388, -13.286069
   16.562, -13.228840
   16.738, -13.172278
   16.916, -13.116306
   17.096, -13.060820
   17.278, -13.005851
   17.462, -12.951567
   17.648, -12.898153
   17.836, -12.845613
   18.025, -12.793917
   18.217, -12.743065
   18.411, -12.693242
   18.607, -12.644676
   18.805, -12.597605
   19.005, -12.552256
   19.207, -12.508781
   19.412, -12.467033
   19.618, -12.426783
   19.827, -12.388134
   20.038, -12.351472
   20.251, -12.317113
   20.467, -12.285147
   20.684, -12.255642
   20.905, -12.228766
   21.127, -12.204794
   21.352, -12.184001
   21.579, -12.166490
   21.809, -12.152231
   22.041, -12.141237
   22.275, -12.133620
   22.512, -12.129563
   22.752, -12.129305
   22.994, -12.133215
   23.239, -12.141641
   23.486, -12.154675
   23.736, -12.172274
   23.988, -12.194396
   24.244, -12.221080
   24.501, -12.252311
   24.762, -12.287976
   25.026, -12.327888
   25.292, -12.371876
   25.561, -12.419924
   25.833, -12.472021
   26.108, -12.528063
   26.386, -12.587636
   26.667, -12.650276
   26.950, -12.715840
   27.237, -12.784485
   27.527, -12.856227
   27.820, -12.930675
   28.116, -13.007356
   28.415, -13.085875
   28.717, -13.166020
   29.023, -13.247561
   29.332, -13.330219
   29.644, -13.413676
   29.959, -13.497595
   30.278, -13.581550
   30.600, -13.664898
   30.926, -13.746895
   31.255, -13.827084
   31.587, -13.905196
   31.924, -13.980809
   32.263, -14.053251
   32.607, -14.121733
   32.953, -14.185503
   33.304, -14.243800
   33.658, -14.295840
   34.017, -14.340906
   34.379, -14.378339
   34.744, -14.407664
   35.114, -14.430148
   35.488, -14.447149
   35.865, -14.459655
   36.247, -14.467257
   36.633, -14.469999
   37.022, -14.468095
   37.416, -14.461557
   37.815, -14.450438
   38.217, -14.435191
   38.624, -14.416492
   39.035, -14.394993
   39.450, -14.371118
   39.870, -14.345155
   40.294, -14.317424
   40.723, -14.288407
   41.156, -14.258703
   41.594, -14.228906
   42.036, -14.199507
   42.484, -14.170992
   42.936, -14.143909
   43.393, -14.119056
   43.854, -14.097334
   44.321, -14.079614
   44.793, -14.066670
   45.269, -14.059352
   45.751, -14.058677
   46.238, -14.065804
   46.730, -14.080625
   47.227, -14.102306
   47.730, -14.130049
   48.237, -14.163891
   48.751, -14.203601
   49.269, -14.248618
   49.794, -14.298615
   50.323, -14.353283
   50.859, -14.412055
   51.400, -14.474160
   51.947, -14.538776
   52.500, -14.605012
   53.058, -14.671906
   53.623, -14.738585
   54.194, -14.804563
   54.770, -14.869409
   55.353, -14.932076
   55.942, -14.990776
   56.537, -15.043743
   57.139, -15.089676
   57.747, -15.127465
   58.361, -15.155910
   58.982, -15.174697
   59.610, -15.184589
   60.244, -15.187139
   60.885, -15.183282
   61.533, -15.173392
   62.188, -15.157902
   62.850, -15.137812
   63.518, -15.114281
   64.194, -15.088587
   64.877, -15.062061
   65.568, -15.036117
   66.265, -15.012103
   66.970, -14.991401
   67.683, -14.975540
   68.403, -14.966374
   69.131, -14.966057
   69.867, -14.977432
   70.610, -15.001726
   71.361, -15.037002
   72.121, -15.079591
   72.888, -15.126822
   73.664, -15.177968
   74.448, -15.232443
   75.240, -15.289685
   76.040, -15.348885
   76.849, -15.408899
   77.667, -15.468478
   78.494, -15.526426
   79.329, -15.581830
   80.173, -15.633720
   81.026, -15.680977
   81.888, -15.722904
   82.759, -15.760394
   83.640, -15.795278
   84.530, -15.829380
   85.430, -15.863363
   86.339, -15.897213
   87.257, -15.930242
   88.186, -15.961717
   89.124, -15.991460
   90.072, -16.019562
   91.031, -16.046221
   91.999, -16.071985
   92.978, -16.097721
   93.968, -16.124010
   94.968, -16.149977
   95.978, -16.174448
   96.999, -16.196653
   98.032, -16.216961
   99.075, -16.236023
  100.129, -16.254709
  101.194, -16.273935
  102.271, -16.294598
  103.359, -16.317650
  104.459, -16.344122
  105.571, -16.375589
  106.694, -16.412609
  107.829, -16.454996
  108.977, -16.501575
  110.136, -16.551535
  111.308, -16.603638
  112.492, -16.656382
  113.689, -16.708242
  114.899, -16.757643
  116.122, -16.802938
  117.357, -16.842936
  118.606, -16.877438
  119.868, -16.907358
  121.144, -16.934288
  122.433, -16.959858
  123.735, -16.985527
  125.052, -17.012470
  126.383, -17.041779
  127.727, -17.074036
  129.087, -17.108795
  130.460, -17.146667
  131.848, -17.188885
  133.251, -17.237000
  134.669, -17.290154
  136.102, -17.346453
  137.550, -17.404362
  139.014, -17.463978
  140.493, -17.527391
  141.988, -17.595255
  143.499, -17.667347
  145.026, -17.741819
  146.569, -17.818359
  148.129, -17.896334
  149.705, -17.974951
  151.298, -18.053484
  152.908, -18.130959
  154.535, -18.205820
  156.179, -18.276569
  157.841, -18.344671
  159.520, -18.413998
  161.218, -18.487589
  162.933, -18.556181
  164.667, -18.600393
  166.419, -18.613033
  168.190, -18.611822
  169.979, -18.626587
  171.788, -18.673769
  173.616, -18.749496
  175.463, -18.842360
  177.330, -18.939642
  179.217, -19.027731
  181.124, -19.094070
  183.052, -19.135988
  184.999, -19.159935
  186.968, -19.179369
  188.957, -19.208340
  190.968, -19.255064
  193.000, -19.315701
  195.054, -19.380816
  197.129, -19.441048
  199.227, -19.484922
  201.347, -19.512836
  203.489, -19.531193
  205.654, -19.549547
  207.843, -19.569851
  210.054, -19.594704
  212.289, -19.626051
  214.548, -19.663662
  216.831, -19.704588
  219.138, -19.744883
  221.470, -19.782076
  223.827, -19.818565
  226.208, -19.858313
  228.615, -19.897833
  231.048, -19.929338
  233.506, -19.951452
  235.991, -19.972969
  238.502, -20.001526
  241.040, -20.035671
  243.605, -20.073118
  246.197, -20.125883
  248.816, -20.201599
  251.464, -20.299347
  254.140, -20.401495
  256.844, -20.498793
  259.577, -20.587864
  262.339, -20.668810
  265.130, -20.741798
  267.952, -20.802177
  270.803, -20.844513
  273.684, -20.868347
  276.596, -20.878147
  279.540, -20.879267
  282.514, -20.871494
  285.520, -20.855251
  288.558, -20.835379
  291.629, -20.825386
  294.732, -20.840977
  297.868, -20.883755
  301.037, -20.935526
  304.241, -20.962236
  307.478, -20.941607
  310.750, -20.883539
  314.056, -20.833624
  317.398, -20.844994
  320.775, -20.929623
  324.189, -21.048397
  327.638, -21.128199
  331.124, -21.133188
  334.648, -21.085255
  338.209, -21.047161
  341.807, -21.062044
  345.444, -21.126814
  349.120, -21.191261
  352.835, -21.208443
  356.589, -21.172802
  360.384, -21.109135
  364.218, -21.036272
  368.094, -20.958176
  372.011, -20.891142
  375.969, -20.869884
  379.970, -20.905247
  384.013, -20.986143
  388.099, -21.087744
  392.228, -21.201229
  396.402, -21.288374
  400.620, -21.301220
  404.883, -21.240393
  409.191, -21.157011
  413.545, -21.097391
  417.945, -21.073500
  422.393, -21.103138
  426.887, -21.185610
  431.429, -21.265526
  436.020, -21.275261
  440.660, -21.212128
  445.348, -21.129526
  450.087, -21.064903
  454.876, -21.027678
  459.717, -21.024408
  464.608, -21.038460
  469.552, -21.036556
  474.548, -21.002394
  479.598, -20.949709
  484.701, -20.902002
  489.858, -20.889914
  495.071, -20.955748
  500.339, -21.055374
  505.663, -21.090689
  511.043, -21.015656
  516.481, -20.892820
  521.977, -20.793598
  527.531, -20.758194
  533.144, -20.796432
  538.817, -20.900536
  544.550, -21.029009
  550.345, -21.123514
  556.201, -21.160995
  562.119, -21.183411
  568.100, -21.243320
  574.145, -21.319063
  580.255, -21.371750
  586.429, -21.427040
  592.669, -21.506687
  598.975, -21.578474
  605.349, -21.622440
  611.790, -21.669353
  618.300, -21.714861
  624.879, -21.713461
  631.528, -21.692066
  638.248, -21.698011
  645.039, -21.692072
  651.903, -21.650616
  658.839, -21.625807
  665.850, -21.681875
  672.935, -21.779840
  680.095, -21.842985
  687.332, -21.869463
  694.645, -21.879135
  702.037, -21.903625
  709.507, -21.942719
  717.057, -22.014515
  724.686, -22.068703
  732.398, -22.083973
  740.191, -22.105713
  748.067, -22.150248
  756.027, -22.189157
  764.071, -22.171036
  772.201, -22.124897
  780.418, -22.072990
  788.722, -22.047943
  797.115, -22.089874
  805.597, -22.134155
  814.169, -22.131721
  822.832, -22.135820
  831.587, -22.163822
  840.436, -22.188236
  849.379, -22.168571
  858.417, -22.193512
  867.551, -22.220079
  876.782, -22.183397
  886.111, -22.116589
  895.540, -22.148453
  905.069, -22.224096
  914.700, -22.184193
  924.433, -22.061152
  934.269, -21.955244
  944.210, -21.929955
  954.257, -21.921158
  964.411, -21.913633
  974.673, -21.897009
  985.044, -21.866140
  995.526, -21.797022
 1006.119, -21.715460
 1016.824, -21.643864
 1027.644, -21.618479
 1038.579, -21.574797
 1049.630, -21.506784
 1060.799, -21.442429
 1072.086, -21.413868
 1083.494, -21.424372
 1095.023, -21.439302
 1106.674, -21.427425
 1118.450, -21.383665
 1130.351, -21.311192
 1142.379, -21.219881
 1154.534, -21.130823
 1166.819, -21.055433
 1179.235, -21.003588
 1191.783, -20.988470
 1204.464, -20.964443
 1217.280, -20.934088
 1230.233, -20.938826
 1243.323, -20.935005
 1256.553, -20.864435
 1269.923, -20.761436
 1283.436, -20.710135
 1297.093, -20.661234
 1310.895, -20.655855
 1324.843, -20.615980
 1338.940, -20.636711
 1353.188, -20.558571
 1367.586, -20.515787
 1382.138, -20.465982
 1396.845, -20.469551
 1411.708, -20.480314
 1426.730, -20.436047
 1441.911, -20.369198
 1457.254, -20.312078
 1472.760, -20.249060
 1488.431, -20.231236
 1504.269, -20.198158
 1520.275, -20.188457
 1536.452, -20.151007
 1552.801, -20.102531
 1569.323, -20.044151
 1586.022, -19.952488
 1602.898, -19.901365
 1619.954, -19.835388
 1637.191, -19.822950
 1654.612, -19.799536
 1672.218, -19.716190
 1690.011, -19.564440
 1707.994, -19.411425
 1726.168, -19.374746
 1744.536, -19.322147
 1763.099, -19.249933
 1781.859, -19.111631
 1800.819, -19.001328
 1819.981, -18.902502
 1839.347, -18.791805
 1858.918, -18.704105
 1878.698, -18.622623
 1898.689, -18.493958
 1918.892, -18.211121
 1939.310, -17.854820
 1959.946, -17.520903
 1980.801, -17.178692
 2001.878, -16.834288
 2023.179, -16.523344
 2044.707, -16.268265
 2066.464, -16.065838
 2088.452, -15.839933
 2110.674, -15.642865
 2133.133, -15.463193
 2155.831, -15.284134
 2178.771, -15.099122
 2201.954, -14.940784
 2225.384, -14.827043
 2249.063, -14.716232
 2272.995, -14.511360
 2297.181, -14.314980
 2321.624, -14.138462
 2346.328, -14.027494
 2371.294, -13.875542
 2396.526, -13.751547
 2422.027, -13.593673
 2447.798, -13.438537
 2473.844, -13.247471
 2500.168, -13.116461
 2526.771, -13.027226
 2553.657, -12.935822
 2580.830, -12.843422
 2608.291, -12.723053
 2636.045, -12.632822
 2664.094, -12.550126
 2692.442, -12.473965
 2721.091, -12.378853
 2750.045, -12.307313
 2779.307, -12.273746
 2808.881, -12.218227
 2838.769, -12.139438
 2868.975, -12.083804
 2899.503, -12.069449
 2930.355, -12.105230
 2961.536, -12.153986
 2993.049, -12.245129
 3024.896, -12.333064
 3057.083, -12.449445
 3089.612, -12.544279
 3122.488, -12.657177
 3155.713, -12.761584
 3189.292, -12.883744
 3223.228, -13.013141
 3257.525, -13.181092
 3292.187, -13.383572
 3327.218, -13.587189
 3362.621, -13.791381
 3398.402, -14.057481
 3434.563, -14.361725
 3471.108, -14.687796
 3508.043, -14.993547
 3545.371, -15.305884
 3583.096, -15.620091
 3621.222, -15.904498
 3659.754, -16.173140
 3698.696, -16.458431
 3738.052, -16.773954
 3777.827, -17.082335
 3818.026, -17.376535
 3858.652, -17.642372
 3899.710, -17.899824
 3941.206, -18.136110
 3983.142, -18.389921
 4025.525, -18.680969
 4068.360, -18.928816
 4111.649, -19.164642
 4155.400, -19.391636
 4199.616, -19.596313
 4244.302, -19.752434
 4289.464, -19.842730
 4335.106, -19.897387
 4381.235, -19.900236
 4427.854, -19.832043
 4474.969, -19.747669
 4522.585, -19.595249
 4570.708, -19.463999
 4619.343, -19.249027
 4668.496, -19.056732
 4718.171, -18.830721
 4768.376, -18.601721
 4819.114, -18.355532
 4870.393, -18.112226
 4922.216, -17.905619
 4974.592, -17.702074
 5027.524, -17.560123
 5081.021, -17.501751
 5135.085, -17.493542
 5189.726, -17.534925
 5244.948, -17.635876
 5300.757, -17.837847
 5357.161, -18.116249
 5414.164, -18.395212
 5471.774, -18.695837
 5529.997, -18.958712
 5588.839, -19.231838
 5648.308, -19.535778
 5708.409, -19.813631
 5769.150, -20.090958
 5830.538, -20.316933
 5892.578, -20.596798
 5955.279, -20.854475
 6018.646, -21.132618
 6082.688, -21.370008
 6147.412, -21.556990
 6212.824, -21.732994
 6278.932, -21.890236
 6345.744, -22.043129
 6413.267, -22.103180
 6481.507, -22.188444
 6550.475, -22.219854
 6620.176, -22.265978
 6690.619, -22.263300
 6761.811, -22.233912
 6833.760, -22.155750
 6906.476, -22.009209
 6979.965, -21.864305
 7054.236, -21.575619
 7129.297, -21.255447
 7205.157, -20.859020
 7281.825, -20.513058
 7359.308, -20.099476
 7437.615, -19.684517
 7516.756, -19.113766
 7596.739, -18.486938
 7677.572, -17.787766
 7759.267, -17.019089
 7841.830, -16.250254
 7925.271, -15.380094
 8009.601, -14.500621
 8094.828, -13.576305
 8180.962, -12.641313
 8268.013, -11.782763
 8355.989, -10.922110
 8444.902, -10.163234
 8534.761, -9.538452
 8625.576, -9.090490
 8717.357, -8.833938
 8810.115, -8.809910
 8903.860, -9.033566
 8998.603, -9.472179
 9094.354, -10.087692
 9191.123, -10.858171
 9288.922, -11.769308
 9387.762, -12.709538
 9487.653, -13.697846
 9588.607, -14.614965
 9690.636, -15.534954
 9793.750, -16.362810
 9897.962, -17.149576
10003.282, -17.872791
10109.723, -18.581055
10217.297, -19.231180
10326.015, -19.846832
10435.890, -20.420000
10546.934, -20.892056
10659.160, -21.310085
10772.580, -21.674364
10887.206, -22.024511
11003.053, -22.226784
11120.132, -22.404045
11238.457, -22.459633
11358.041, -22.445356
11478.897, -22.276138
11601.040, -21.986074
11724.481, -21.517401
11849.237, -20.909472
11975.320, -20.099770
12102.745, -19.030634
12231.525, -17.695154
12361.677, -16.243637
12493.212, -15.088578
12626.147, -14.674831
12760.497, -15.183492
12896.277, -16.587700
13033.501, -18.575150
13172.186, -20.667976
13312.346, -22.585171
13453.997, -24.204830
13597.155, -25.678419
13741.838, -27.081469
13888.059, -28.420280
14035.836, -29.610556
14185.187, -30.581699
14336.125, -31.475735
14488.670, -32.236542
14642.839, -32.951797
14798.647, -33.546131
14956.113, -34.076500
15115.256, -34.484024
15276.091, -34.883312
15438.638, -35.485588
15602.915, -36.470364
15768.939, -37.690624
15936.730, -38.798676
16106.307, -39.442890
16277.688, -39.613285
16450.893, -39.429710
16625.939, -38.967480
16802.850, -38.704311
16981.643, -38.777378
17162.336, -39.049744
17344.955, -38.700783
17529.516, -37.676510
17716.039, -36.498455
17904.549, -35.751484
18095.064, -35.763119
18287.607, -36.826542
18482.199, -38.896801
18678.859, -41.719685
18877.615, -44.152431
19078.484, -46.150330
19281.490, -47.881313
19486.656, -49.535183
19694.008, -50.774395
19903.563, -51.539738
20115.350, -55.614212
20329.389, -55.459137
20545.705, -54.764969
20764.324, -54.121330
20985.270, -53.691299
21208.564, -53.341675
21434.236, -53.028831
21662.311, -52.719307
21892.811, -52.498074
22125.764, -52.310944
22361.195, -52.216156
22599.131, -52.254601
22839.600, -52.868301
23082.627, -54.295731
23328.240, -56.858414
23576.467, -59.721764
23827.334, -61.888065
