Frequency(Hz),   Magnitude(dB)
   11.804, -28.215473
   11.929, -28.186895
   12.056, -28.111134
   12.184, -28.027687
   12.314, -27.942377
   12.445, -27.855347
   12.578, -27.766771
   12.711, -27.676828
   12.847, -27.585678
   12.983, -27.493353
   13.122, -27.399708
   13.261, -27.304560
   13.402, -27.207895
   13.545, -27.109863
   13.689, -27.010647
   13.835, -26.910418
   13.982, -26.809317
   14.131, -26.707451
   14.281, -26.604740
   14.433, -26.501032
   14.587, -26.396160
   14.742, -26.290152
   14.899, -26.183239
   15.057, -26.075651
   15.217, -25.967527
   15.379, -25.858826
   15.543, -25.749496
   15.708, -25.639523
   15.875, -25.528938
   16.044, -25.417801
   16.215, -25.306192
   16.388, -25.194284
   16.562, -25.082277
   16.738, -24.970249
   16.916, -24.858097
   17.096, -24.745686
   17.278, -24.633039
   17.462, -24.520313
   17.648, -24.407648
   17.836, -24.295046
   18.025, -24.182447
   18.217, -24.069836
   18.411, -23.957367
   18.607, -23.845257
   18.805, -23.733698
   19.005, -23.622908
   19.207, -23.513000
   19.412, -23.403799
   19.618, -23.295065
   19.827, -23.186855
   20.038, -23.079527
   20.251, -22.973354
   20.467, -22.868404
   20.684, -22.764723
   20.905, -22.662411
   21.127, -22.561726
   21.352, -22.462902
   21.579, -22.365999
   21.809, -22.270954
   22.041, -22.177725
   22.275, -22.086386
   22.512, -21.997059
   22.752, -21.909950
   22.994, -21.825378
   23.239, -21.743576
   23.486, -21.664143
   23.736, -21.586317
   23.988, -21.509466
   24.244, -21.433479
   24.501, -21.358471
   24.762, -21.284445
   25.026, -21.211372
   25.292, -21.139242
   25.561, -21.068205
   25.833, -20.998461
   26.108, -20.930096
   26.386, -20.862926
   26.667, -20.796715
   26.950, -20.731586
   27.237, -20.667957
   27.527, -20.606136
   27.820, -20.546061
   28.116, -20.487576
   28.415, -20.430645
   28.717, -20.375425
   29.023, -20.322098
   29.332, -20.270803
   29.644, -20.221680
   29.959, -20.174850
   30.278, -20.130423
   30.600, -20.088276
   30.926, -20.048222
   31.255, -20.010422
   31.587, -19.975220
   31.924, -19.942865
   32.263, -19.913380
   32.607, -19.886742
   32.953, -19.862965
   33.304, -19.842098
   33.658, -19.824224
   34.017, -19.809532
   34.379, -19.798326
   34.744, -19.791565
   35.114, -19.795910
   35.488, -19.812654
   35.865, -19.839256
   36.247, -19.867971
   36.633, -19.897293
   37.022, -19.927116
   37.416, -19.957201
   37.815, -19.987318
   38.217, -20.017630
   38.624, -20.048445
   39.035, -20.080084
   39.450, -20.112570
   39.870, -20.145782
   40.294, -20.179611
   40.723, -20.214045
   41.156, -20.249170
   41.594, -20.285042
   42.036, -20.321571
   42.484, -20.358622
   42.936, -20.396093
   43.393, -20.434076
   43.854, -20.472733
   44.321, -20.512146
   44.793, -20.552265
   45.269, -20.593040
   45.751, -20.634584
   46.238, -20.677084
   46.730, -20.719839
   47.227, -20.762348
   47.730, -20.804777
   48.237, -20.848042
   48.751, -20.892385
   49.269, -20.937681
   49.794, -20.984026
   50.323, -21.031588
   50.859, -21.080338
   51.400, -21.130054
   51.947, -21.180508
   52.500, -21.231445
   53.058, -21.282576
   53.623, -21.333767
   54.194, -21.385296
   54.770, -21.437572
   55.353, -21.490389
   55.942, -21.542929
   56.537, -21.594370
   57.139, -21.644489
   57.747, -21.692806
   58.361, -21.733648
   58.982, -21.761106
   59.610, -21.773706
   60.244, -21.776188
   60.885, -21.772381
   61.533, -21.762835
   62.188, -21.747944
   62.850, -21.728664
   63.518, -21.706106
   64.194, -21.681471
   64.877, -21.656042
   65.568, -21.631157
   66.265, -21.608105
   66.970, -21.588196
   67.683, -21.572859
   68.403, -21.563883
   69.131, -21.563385
   69.867, -21.574675
   70.610, -21.599054
   71.361, -21.633444
   72.121, -21.672579
   72.888, -21.713087
   73.664, -21.754906
   74.448, -21.798300
   75.240, -21.843544
   76.040, -21.890804
   76.849, -21.939938
   77.667, -21.990744
   78.494, -22.043188
   79.329, -22.097532
   80.173, -22.154116
   81.026, -22.213036
   81.888, -22.273407
   82.759, -22.334730
   83.640, -22.397108
   84.530, -22.461660
   85.430, -22.528889
   86.339, -22.598492
   87.257, -22.669466
   88.186, -22.740788
   89.124, -22.811890
   90.072, -22.882507
   91.031, -22.952406
   91.999, -23.021725
   92.978, -23.090824
   93.968, -23.160286
   94.968, -23.230017
   95.978, -23.299730
   96.999, -23.368818
   98.032, -23.437096
   99.075, -23.504538
  100.129, -23.571280
  101.194, -23.637484
  102.271, -23.703226
  103.359, -23.768583
  104.459, -23.833183
  105.571, -23.894854
  106.694, -23.952120
  107.829, -24.004959
  108.977, -24.055458
  110.136, -24.104931
  111.308, -24.154249
  112.492, -24.204189
  113.689, -24.255611
  114.899, -24.309484
  116.122, -24.366358
  117.357, -24.424999
  118.606, -24.484974
  119.868, -24.546642
  121.144, -24.611948
  122.433, -24.681435
  123.735, -24.755331
  125.052, -24.833458
  126.383, -24.915609
  127.727, -25.004715
  129.087, -25.122740
  130.460, -25.290131
  131.848, -25.516607
  133.251, -25.786633
  134.669, -26.082039
  136.102, -26.382650
  137.550, -26.667229
  139.014, -26.913612
  140.493, -27.089235
  141.988, -27.172806
  143.499, -27.165724
  145.026, -27.097441
  146.569, -26.999992
  148.129, -26.905294
  149.705, -26.845991
  151.298, -26.850853
  152.908, -26.943357
  154.535, -27.136971
  156.179, -27.425119
  157.841, -27.779591
  159.520, -28.153521
  161.218, -28.492033
  162.933, -28.713223
  164.667, -28.704058
  166.419, -28.412123
  168.190, -27.896595
  169.979, -27.295572
  171.788, -26.738993
  173.616, -26.337797
  175.463, -26.202065
  177.330, -26.363405
  179.217, -26.779415
  181.124, -27.328533
  183.052, -27.895315
  184.999, -28.366211
  186.968, -28.623987
  188.957, -28.632273
  190.968, -28.448370
  193.000, -28.178806
  195.054, -27.900389
  197.129, -27.678915
  199.227, -27.552721
  201.347, -27.526733
  203.489, -27.572861
  205.654, -27.652107
  207.843, -27.722021
  210.054, -27.747637
  212.289, -27.707144
  214.548, -27.601599
  216.831, -27.454622
  219.138, -27.310419
  221.470, -27.237148
  223.827, -27.285997
  226.208, -27.457094
  228.615, -27.693415
  231.048, -27.925392
  233.506, -28.115849
  235.991, -28.264767
  238.502, -28.388824
  241.040, -28.498978
  243.605, -28.592091
  246.197, -28.665340
  248.816, -28.714659
  251.464, -28.744209
  254.140, -28.770884
  256.844, -28.833887
  259.577, -28.970947
  262.339, -29.187544
  265.130, -29.442741
  267.952, -29.653706
  270.803, -29.749552
  273.684, -29.723480
  276.596, -29.639505
  279.540, -29.587200
  282.514, -29.619759
  285.520, -29.739853
  288.558, -29.898909
  291.629, -30.021696
  294.732, -30.066498
  297.868, -30.035767
  301.037, -29.957466
  304.241, -29.844835
  307.478, -29.693209
  310.750, -29.516190
  314.056, -29.368999
  317.398, -29.352045
  320.775, -29.489889
  324.189, -29.713530
  327.638, -29.886105
  331.124, -29.953751
  334.648, -29.928162
  338.209, -29.841030
  341.807, -29.689363
  345.444, -29.490175
  349.120, -29.304321
  352.835, -29.212021
  356.589, -29.224703
  360.384, -29.271042
  364.218, -29.250565
  368.094, -29.140129
  372.011, -29.013910
  375.969, -28.969231
  379.970, -29.026155
  384.013, -29.128681
  388.099, -29.201509
  392.228, -29.234648
  396.402, -29.301489
  400.620, -29.512938
  404.883, -29.863344
  409.191, -30.146946
  413.545, -30.157450
  417.945, -29.969507
  422.393, -29.823727
  426.887, -29.803640
  431.429, -29.816628
  436.020, -29.731367
  440.660, -29.567678
  445.348, -29.529861
  450.087, -29.714605
  454.876, -29.974964
  459.717, -30.052147
  464.608, -29.928164
  469.552, -29.784735
  474.548, -29.698835
  479.598, -29.596235
  484.701, -29.410007
  489.858, -29.248554
  495.071, -29.270014
  500.339, -29.436340
  505.663, -29.518909
  511.043, -29.462635
  516.481, -29.569368
  521.977, -29.936893
  527.531, -30.206856
  533.144, -30.043840
  538.817, -29.687042
  544.550, -29.486031
  550.345, -29.476929
  556.201, -29.555504
  562.119, -29.662968
  568.100, -29.760548
  574.145, -29.843805
  580.255, -29.926533
  586.429, -30.032778
  592.669, -30.155836
  598.975, -30.243645
  605.349, -30.227301
  611.790, -30.084595
  618.300, -29.906513
  624.879, -29.764751
  631.528, -29.681549
  638.248, -29.611601
  645.039, -29.534164
  651.903, -29.490429
  658.839, -29.567186
  665.850, -29.622740
  672.935, -29.532269
  680.095, -29.408083
  687.332, -29.425253
  694.645, -29.584423
  702.037, -29.672457
  709.507, -29.677084
  717.057, -29.632551
  724.686, -29.603111
  732.398, -29.603361
  740.191, -29.591141
  748.067, -29.458282
  756.027, -29.243563
  764.071, -29.152075
  772.201, -29.249035
  780.418, -29.419001
  788.722, -29.444889
  797.115, -29.401896
  805.597, -29.288820
  814.169, -29.163906
  822.832, -29.163761
  831.587, -29.014189
  840.436, -28.831856
  849.379, -28.659594
  858.417, -28.807339
  867.551, -28.997919
  876.782, -28.963125
  886.111, -28.767056
  895.540, -28.575130
  905.069, -28.454231
  914.700, -28.422377
  924.433, -28.371185
  934.269, -28.345711
  944.210, -28.213381
  954.257, -28.033266
  964.411, -27.929344
  974.673, -27.740095
  985.044, -27.620268
  995.526, -27.565941
 1006.119, -27.695370
 1016.824, -27.699867
 1027.644, -27.540930
 1038.579, -27.484116
 1049.630, -27.435053
 1060.799, -27.339664
 1072.086, -27.192657
 1083.494, -27.090227
 1095.023, -27.041023
 1106.674, -26.931013
 1118.450, -26.767834
 1130.351, -26.525444
 1142.379, -26.314505
 1154.534, -26.280350
 1166.819, -26.365940
 1179.235, -26.479710
 1191.783, -26.450516
 1204.464, -26.245090
 1217.280, -25.978033
 1230.233, -25.744820
 1243.323, -25.606750
 1256.553, -25.610071
 1269.923, -25.597996
 1283.436, -25.564108
 1297.093, -25.366329
 1310.895, -25.152439
 1324.843, -25.112106
 1338.940, -25.161724
 1353.188, -25.224051
 1367.586, -24.957592
 1382.138, -24.692724
 1396.845, -24.606552
 1411.708, -24.606443
 1426.730, -24.514397
 1441.911, -24.364578
 1457.254, -24.334858
 1472.760, -24.441145
 1488.431, -24.432858
 1504.269, -24.418415
 1520.275, -24.194853
 1536.452, -24.024250
 1552.801, -23.927881
 1569.323, -23.897902
 1586.022, -23.877354
 1602.898, -23.858389
 1619.954, -23.757116
 1637.191, -23.674488
 1654.612, -23.564203
 1672.218, -23.461613
 1690.011, -23.203852
 1707.994, -23.068022
 1726.168, -23.036388
 1744.536, -23.141212
 1763.099, -23.011768
 1781.859, -23.008554
 1800.819, -22.688175
 1819.981, -22.721233
 1839.347, -22.669569
 1858.918, -22.617203
 1878.698, -22.363306
 1898.689, -22.297726
 1918.892, -22.355818
 1939.310, -22.290464
 1959.946, -22.028301
 1980.801, -22.046398
 2001.878, -21.971712
 2023.179, -22.040131
 2044.707, -21.851751
 2066.464, -21.793348
 2088.452, -21.551756
 2110.674, -21.495403
 2133.133, -21.195471
 2155.831, -21.292864
 2178.771, -21.219624
 2201.954, -21.367672
 2225.384, -21.002638
 2249.063, -20.826223
 2272.995, -20.764584
 2297.181, -20.803856
 2321.624, -20.766708
 2346.328, -20.614809
 2371.294, -20.505466
 2396.526, -20.419819
 2422.027, -20.311613
 2447.798, -20.224873
 2473.844, -20.201006
 2500.168, -20.183159
 2526.771, -20.080727
 2553.657, -19.935860
 2580.830, -19.854607
 2608.291, -19.864319
 2636.045, -19.861301
 2664.094, -19.723675
 2692.442, -19.566059
 2721.091, -19.422710
 2750.045, -19.441971
 2779.307, -19.313866
 2808.881, -19.254732
 2838.769, -19.120068
 2868.975, -19.182545
 2899.503, -19.116405
 2930.355, -19.142078
 2961.536, -19.174793
 2993.049, -19.303730
 3024.896, -19.353041
 3057.083, -19.286318
 3089.612, -19.404306
 3122.488, -19.604704
 3155.713, -19.680645
 3189.292, -19.661030
 3223.228, -19.805191
 3257.525, -20.011211
 3292.187, -19.953186
 3327.218, -20.024576
 3362.621, -20.281630
 3398.402, -20.571695
 3434.563, -20.647573
 3471.108, -20.772591
 3508.043, -21.010698
 3545.371, -21.196121
 3583.096, -21.418697
 3621.222, -21.585173
 3659.754, -21.789881
 3698.696, -21.903187
 3738.052, -22.227036
 3777.827, -22.473007
 3818.026, -22.699421
 3858.652, -22.918880
 3899.710, -22.884623
 3941.206, -22.985048
 3983.142, -23.016376
 4025.525, -23.357388
 4068.360, -23.602411
 4111.649, -23.664564
 4155.400, -23.918461
 4199.616, -24.027428
 4244.302, -24.178741
 4289.464, -24.310646
 4335.106, -24.467546
 4381.235, -24.560575
 4427.854, -24.486460
 4474.969, -24.326651
 4522.585, -24.269741
 4570.708, -24.158604
 4619.343, -24.131725
 4668.496, -23.930265
 4718.171, -23.788588
 4768.376, -23.643501
 4819.114, -23.512726
 4870.393, -23.547293
 4922.216, -23.445351
 4974.592, -23.218613
 5027.524, -22.964825
 5081.021, -22.716242
 5135.085, -22.534845
 5189.726, -22.410242
 5244.948, -22.291409
 5300.757, -22.143600
 5357.161, -21.918015
 5414.164, -21.852978
 5471.774, -21.774336
 5529.997, -21.649199
 5588.839, -21.502422
 5648.308, -21.269291
 5708.409, -21.130560
 5769.150, -21.020542
 5830.538, -20.851400
 5892.578, -20.636635
 5955.279, -20.403635
 6018.646, -20.139481
 6082.688, -20.083788
 6147.412, -20.100786
 6212.824, -20.321413
 6278.932, -20.359589
 6345.744, -20.536629
 6413.267, -20.735992
 6481.507, -21.013060
 6550.475, -21.304213
 6620.176, -21.567535
 6690.619, -21.748669
 6761.811, -21.898943
 6833.760, -22.080877
 6906.476, -22.354353
 6979.965, -22.438026
 7054.236, -22.373730
 7129.297, -22.433941
 7205.157, -22.436121
 7281.825, -22.626047
 7359.308, -22.711647
 7437.615, -22.638485
 7516.756, -22.134424
 7596.739, -21.550865
 7677.572, -21.157068
 7759.267, -20.788038
 7841.830, -20.323406
 7925.271, -19.661766
 8009.601, -18.742785
 8094.828, -18.234299
 8180.962, -17.824343
 8268.013, -17.683594
 8355.989, -17.785246
 8444.902, -18.249115
 8534.761, -18.854582
 8625.576, -19.359350
 8717.357, -20.251860
 8810.115, -21.440468
 8903.860, -22.693691
 8998.603, -24.003096
 9094.354, -25.360815
 9191.123, -26.599518
 9288.922, -27.445101
 9387.762, -28.622948
 9487.653, -29.970715
 9588.607, -31.101152
 9690.636, -32.020893
 9793.750, -33.090500
 9897.962, -33.881840
10003.282, -34.830166
10109.723, -35.127628
10217.297, -35.366299
10326.015, -35.675793
10435.890, -36.143097
10546.934, -36.445129
10659.160, -36.745407
10772.580, -37.109890
10887.206, -37.295586
11003.053, -37.638172
11120.132, -38.161182
11238.457, -38.638916
11358.041, -38.719074
11478.897, -38.821312
11601.040, -39.345112
11724.481, -40.023899
11849.237, -40.617016
11975.320, -40.761677
12102.745, -40.613472
12231.525, -39.976543
12361.677, -39.691334
12493.212, -39.457951
12626.147, -39.817768
12760.497, -39.830769
12896.277, -39.949135
13033.501, -39.614559
13172.186, -39.685726
13312.346, -39.593208
13453.997, -39.665123
13597.155, -38.668598
13741.838, -37.922199
13888.059, -37.478088
14035.836, -37.288063
14185.187, -36.366066
14336.125, -34.420681
14488.670, -32.756081
14642.839, -31.525473
14798.647, -30.285109
14956.113, -29.776846
15115.256, -29.890881
15276.091, -31.210468
15438.638, -32.988308
15602.915, -35.370090
15768.939, -37.840332
15936.730, -39.921951
16106.307, -41.760109
16277.688, -43.281296
16450.893, -43.985817
16625.939, -44.139359
16802.850, -44.536346
16981.643, -45.421806
17162.336, -45.220333
17344.955, -44.574707
17529.516, -43.104805
17716.039, -42.421669
17904.549, -41.515369
18095.064, -41.376389
18287.607, -41.121193
18482.199, -41.702015
18678.859, -42.940338
18877.615, -45.113457
19078.484, -47.512573
19281.490, -48.748764
19486.656, -50.160164
19694.008, -51.661541
19903.563, -52.979214
20115.350, -57.865963
20329.389, -59.098377
20545.705, -60.548325
20764.324, -61.394012
20985.270, -61.932747
21208.564, -62.165184
21434.236, -62.157135
21662.311, -62.840633
21892.811, -62.405731
22125.764, -62.354946
22361.195, -61.200714
22599.131, -60.531609
22839.600, -60.530464
23082.627, -61.766434
23328.240, -63.618507
23576.467, -65.506630
23827.334, -66.912155
