Frequency(Hz),   Magnitude(dB)
   11.804, -31.171806
   11.929, -31.141340
   12.056, -31.062344
   12.184, -30.975540
   12.314, -30.886915
   12.445, -30.796581
   12.578, -30.704746
   12.711, -30.611532
   12.847, -30.517120
   12.983, -30.421515
   13.122, -30.324551
   13.261, -30.226036
   13.402, -30.125938
   13.545, -30.024406
   13.689, -29.921585
   13.835, -29.817627
   13.982, -29.712664
   14.131, -29.606781
   14.281, -29.499866
   14.433, -29.391752
   14.587, -29.282236
   14.742, -29.171326
   14.899, -29.059225
   15.057, -28.946135
   15.217, -28.832155
   15.379, -28.717226
   15.543, -28.601250
   15.708, -28.484180
   15.875, -28.366005
   16.044, -28.246742
   16.215, -28.126446
   16.388, -28.005230
   16.562, -27.883247
   16.738, -27.760538
   16.916, -27.636932
   17.096, -27.512257
   17.278, -27.386469
   17.462, -27.259657
   17.648, -27.131924
   17.836, -27.003195
   18.025, -26.873335
   18.217, -26.742270
   18.411, -26.610079
   18.607, -26.476883
   18.805, -26.342817
   19.005, -26.207994
   19.207, -26.072462
   19.412, -25.935947
   19.618, -25.798098
   19.827, -25.658875
   20.038, -25.518539
   20.251, -25.377243
   20.467, -25.234957
   20.684, -25.091593
   20.905, -24.947147
   21.127, -24.801725
   21.352, -24.655428
   21.579, -24.508190
   21.809, -24.359777
   22.041, -24.210014
   22.275, -24.058804
   22.512, -23.906115
   22.752, -23.751972
   22.994, -23.596514
   23.239, -23.439886
   23.486, -23.282375
   23.736, -23.124451
   23.988, -22.966642
   24.244, -22.809269
   24.501, -22.652464
   24.762, -22.496279
   25.026, -22.340647
   25.292, -22.185604
   25.561, -22.031292
   25.833, -21.877901
   26.108, -21.725546
   26.386, -21.574043
   26.667, -21.423164
   26.950, -21.273035
   27.237, -21.124090
   27.527, -20.976648
   27.820, -20.830647
   28.116, -20.685949
   28.415, -20.542530
   28.717, -20.400564
   29.023, -20.260214
   29.332, -20.121658
   29.644, -19.985044
   29.959, -19.850515
   30.278, -19.718168
   30.600, -19.587902
   30.926, -19.459557
   31.255, -19.333284
   31.587, -19.209467
   31.924, -19.088373
   32.263, -18.970015
   32.607, -18.854399
   32.953, -18.741539
   33.304, -18.631542
   33.658, -18.524481
   34.017, -18.420563
   34.379, -18.320131
   34.744, -18.226147
   35.114, -18.166662
   35.488, -18.152060
   35.865, -18.178823
   36.247, -18.220757
   36.633, -18.271784
   37.022, -18.331152
   37.416, -18.398134
   37.815, -18.471996
   38.217, -18.552347
   38.624, -18.638905
   39.035, -18.731350
   39.450, -18.829010
   39.870, -18.931030
   40.294, -19.036499
   40.723, -19.144575
   41.156, -19.254421
   41.594, -19.365128
   42.036, -19.475586
   42.484, -19.584553
   42.936, -19.690756
   43.393, -19.793064
   43.854, -19.890314
   44.321, -19.981188
   44.793, -20.064165
   45.269, -20.137642
   45.751, -20.200052
   46.238, -20.250668
   46.730, -20.296179
   47.227, -20.341043
   47.730, -20.384731
   48.237, -20.419661
   48.751, -20.442642
   49.269, -20.454340
   49.794, -20.456081
   50.323, -20.449341
   50.859, -20.435490
   51.400, -20.415829
   51.947, -20.391733
   52.500, -20.364689
   53.058, -20.336245
   53.623, -20.308233
   54.194, -20.283020
   54.770, -20.263218
   55.353, -20.251013
   55.942, -20.248049
   56.537, -20.256174
   57.139, -20.277969
   57.747, -20.316807
   58.361, -20.381081
   58.982, -20.481562
   59.610, -20.624815
   60.244, -20.809544
   60.885, -21.030184
   61.533, -21.281973
   62.188, -21.560127
   62.850, -21.859976
   63.518, -22.176611
   64.194, -22.504787
   64.877, -22.838884
   65.568, -23.172876
   66.265, -23.500166
   66.970, -23.813652
   67.683, -24.105808
   68.403, -24.368858
   69.131, -24.593246
   69.867, -24.753119
   70.610, -24.818335
   71.361, -24.792032
   72.121, -24.705893
   72.888, -24.591686
   73.664, -24.455940
   74.448, -24.303135
   75.240, -24.138056
   76.040, -23.965637
   76.849, -23.790838
   77.667, -23.618914
   78.494, -23.455570
   79.329, -23.307182
   80.173, -23.180565
   81.026, -23.081394
   81.888, -23.001823
   82.759, -22.931978
   83.640, -22.865362
   84.530, -22.806852
   85.430, -22.759592
   86.339, -22.724091
   87.257, -22.700069
   88.186, -22.687220
   89.124, -22.685766
   90.072, -22.696226
   91.031, -22.719242
   91.999, -22.756088
   92.978, -22.812103
   93.968, -22.901468
   94.968, -23.028610
   95.978, -23.189095
   96.999, -23.368752
   98.032, -23.562246
   99.075, -23.765043
  100.129, -23.972471
  101.194, -24.179514
  102.271, -24.380745
  103.359, -24.570442
  104.459, -24.744181
  105.571, -24.907923
  106.694, -25.066221
  107.829, -25.221638
  108.977, -25.368238
  110.136, -25.505430
  111.308, -25.632750
  112.492, -25.749599
  113.689, -25.855419
  114.899, -25.949442
  116.122, -26.027086
  117.357, -26.065996
  118.606, -26.051088
  119.868, -25.980635
  121.144, -25.874174
  122.433, -25.746174
  123.735, -25.610958
  125.052, -25.483292
  126.383, -25.378809
  127.727, -25.315823
  129.087, -25.312159
  130.460, -25.360779
  131.848, -25.442335
  133.251, -25.534815
  134.669, -25.635328
  136.102, -25.742077
  137.550, -25.853601
  139.014, -25.969627
  140.493, -26.087038
  141.988, -26.207020
  143.499, -26.332222
  145.026, -26.466700
  146.569, -26.607822
  148.129, -26.750856
  149.705, -26.889097
  151.298, -26.997080
  152.908, -27.015789
  154.535, -26.912476
  156.179, -26.700212
  157.841, -26.435577
  159.520, -26.163431
  161.218, -25.928795
  162.933, -25.775448
  164.667, -25.719343
  166.419, -25.740490
  168.190, -25.813313
  169.979, -25.931885
  171.788, -26.108500
  173.616, -26.337463
  175.463, -26.600653
  177.330, -26.889748
  179.217, -27.196114
  181.124, -27.508987
  183.052, -27.805231
  184.999, -28.061617
  186.968, -28.231579
  188.957, -28.275370
  190.968, -28.193396
  193.000, -28.039570
  195.054, -27.877930
  197.129, -27.767950
  199.227, -27.762329
  201.347, -27.868788
  203.489, -28.059044
  205.654, -28.280397
  207.843, -28.496872
  210.054, -28.678261
  212.289, -28.818708
  214.548, -28.931421
  216.831, -29.035118
  219.138, -29.133787
  221.470, -29.230700
  223.827, -29.332230
  226.208, -29.441309
  228.615, -29.549322
  231.048, -29.642902
  233.506, -29.700970
  235.991, -29.713274
  238.502, -29.682264
  241.040, -29.620537
  243.605, -29.534101
  246.197, -29.423216
  248.816, -29.280598
  251.464, -29.110535
  254.140, -28.940304
  256.844, -28.880150
  259.577, -29.051199
  262.339, -29.482658
  265.130, -30.054399
  267.952, -30.499119
  270.803, -30.627571
  273.684, -30.462053
  276.596, -30.178932
  279.540, -29.908607
  282.514, -29.679535
  285.520, -29.496122
  288.558, -29.358700
  291.629, -29.308500
  294.732, -29.411514
  297.868, -29.676155
  301.037, -30.006647
  304.241, -30.187157
  307.478, -30.115667
  310.750, -29.861944
  314.056, -29.607847
  317.398, -29.446058
  320.775, -29.378834
  324.189, -29.347900
  327.638, -29.300205
  331.124, -29.212297
  334.648, -29.101555
  338.209, -29.046839
  341.807, -29.149746
  345.444, -29.416523
  349.120, -29.715193
  352.835, -29.861893
  356.589, -29.828064
  360.384, -29.740650
  364.218, -29.724665
  368.094, -29.801445
  372.011, -29.913502
  375.969, -29.999466
  379.970, -30.046701
  384.013, -30.081812
  388.099, -30.136511
  392.228, -30.213614
  396.402, -30.245808
  400.620, -30.116623
  404.883, -29.842802
  409.191, -29.622692
  413.545, -29.598625
  417.945, -29.721771
  422.393, -29.815840
  426.887, -29.807283
  431.429, -29.806490
  436.020, -29.956625
  440.660, -30.250576
  445.348, -30.516924
  450.087, -30.609581
  454.876, -30.530994
  459.717, -30.344219
  464.608, -30.122074
  469.552, -29.990824
  474.548, -29.979063
  479.598, -29.906675
  484.701, -29.598606
  489.858, -29.312613
  495.071, -29.344858
  500.339, -29.724379
  505.663, -30.199766
  511.043, -30.551283
  516.481, -30.751343
  521.977, -30.794304
  527.531, -30.674776
  533.144, -30.453262
  538.817, -30.277157
  544.550, -30.212978
  550.345, -30.245037
  556.201, -30.271828
  562.119, -30.170475
  568.100, -29.921623
  574.145, -29.708069
  580.255, -29.647116
  586.429, -29.673214
  592.669, -29.653030
  598.975, -29.631395
  605.349, -29.675428
  611.790, -29.767937
  618.300, -29.790041
  624.879, -29.636911
  631.528, -29.541788
  638.248, -29.663128
  645.039, -30.020863
  651.903, -30.238911
  658.839, -30.004217
  665.850, -29.687275
  672.935, -29.577749
  680.095, -29.723711
  687.332, -29.816469
  694.645, -29.774357
  702.037, -29.734074
  709.507, -29.691828
  717.057, -29.579317
  724.686, -29.534924
  732.398, -29.604897
  740.191, -29.684849
  748.067, -29.650782
  756.027, -29.512070
  764.071, -29.290033
  772.201, -29.058929
  780.418, -29.009731
  788.722, -29.293398
  797.115, -29.492914
  805.597, -29.433121
  814.169, -29.180433
  822.832, -29.063635
  831.587, -29.060423
  840.436, -29.049189
  849.379, -28.977901
  858.417, -28.896593
  867.551, -28.740484
  876.782, -28.631838
  886.111, -28.536495
  895.540, -28.571402
  905.069, -28.699059
  914.700, -28.701431
  924.433, -28.549217
  934.269, -28.324930
  944.210, -28.250546
  954.257, -28.235722
  964.411, -28.218403
  974.673, -28.271196
  985.044, -28.205070
  995.526, -28.004869
 1006.119, -27.836590
 1016.824, -27.756096
 1027.644, -27.683847
 1038.579, -27.527231
 1049.630, -27.440613
 1060.799, -27.369286
 1072.086, -27.293833
 1083.494, -27.220356
 1095.023, -27.154835
 1106.674, -27.115339
 1118.450, -27.052382
 1130.351, -26.933912
 1142.379, -26.779860
 1154.534, -26.557068
 1166.819, -26.340696
 1179.235, -26.124790
 1191.783, -26.107718
 1204.464, -26.188223
 1217.280, -26.164057
 1230.233, -26.085768
 1243.323, -25.947718
 1256.553, -25.968882
 1269.923, -25.829815
 1283.436, -25.593176
 1297.093, -25.335030
 1310.895, -25.320438
 1324.843, -25.392658
 1338.940, -25.423508
 1353.188, -25.329012
 1367.586, -25.278151
 1382.138, -25.191906
 1396.845, -25.090611
 1411.708, -25.021730
 1426.730, -24.962767
 1441.911, -24.841339
 1457.254, -24.691256
 1472.760, -24.523561
 1488.431, -24.384096
 1504.269, -24.400257
 1520.275, -24.449064
 1536.452, -24.452965
 1552.801, -24.151871
 1569.323, -23.986794
 1586.022, -24.009743
 1602.898, -23.990044
 1619.954, -23.852980
 1637.191, -23.686600
 1654.612, -23.712252
 1672.218, -23.604425
 1690.011, -23.423254
 1707.994, -23.289894
 1726.168, -23.300814
 1744.536, -23.289375
 1763.099, -23.289602
 1781.859, -23.158195
 1800.819, -23.032013
 1819.981, -22.852612
 1839.347, -22.854630
 1858.918, -22.806345
 1878.698, -22.782646
 1898.689, -22.654934
 1918.892, -22.603916
 1939.310, -22.409569
 1959.946, -22.223547
 1980.801, -22.092041
 2001.878, -22.118177
 2023.179, -22.137215
 2044.707, -21.918051
 2066.464, -21.621305
 2088.452, -21.473717
 2110.674, -21.464333
 2133.133, -21.472742
 2155.831, -21.347891
 2178.771, -21.173199
 2201.954, -21.085270
 2225.384, -20.945608
 2249.063, -20.960253
 2272.995, -20.889877
 2297.181, -20.858788
 2321.624, -20.696594
 2346.328, -20.575193
 2371.294, -20.468483
 2396.526, -20.503122
 2422.027, -20.525599
 2447.798, -20.463406
 2473.844, -20.279474
 2500.168, -20.084082
 2526.771, -20.027760
 2553.657, -19.921631
 2580.830, -19.805750
 2608.291, -19.697874
 2636.045, -19.604954
 2664.094, -19.594614
 2692.442, -19.520741
 2721.091, -19.438990
 2750.045, -19.332022
 2779.307, -19.223791
 2808.881, -19.196177
 2838.769, -19.192709
 2868.975, -19.132334
 2899.503, -19.162573
 2930.355, -19.240526
 2961.536, -19.311274
 2993.049, -19.323414
 3024.896, -19.311842
 3057.083, -19.443798
 3089.612, -19.428272
 3122.488, -19.487078
 3155.713, -19.605486
 3189.292, -19.747471
 3223.228, -19.881237
 3257.525, -19.868542
 3292.187, -19.989264
 3327.218, -20.140972
 3362.621, -20.369244
 3398.402, -20.569120
 3434.563, -20.663881
 3471.108, -20.908928
 3508.043, -21.124033
 3545.371, -21.333908
 3583.096, -21.425774
 3621.222, -21.650318
 3659.754, -21.823812
 3698.696, -21.934334
 3738.052, -22.044264
 3777.827, -22.242952
 3818.026, -22.438725
 3858.652, -22.537830
 3899.710, -22.757936
 3941.206, -22.917328
 3983.142, -23.119230
 4025.525, -23.257891
 4068.360, -23.448393
 4111.649, -23.618063
 4155.400, -23.811134
 4199.616, -23.928808
 4244.302, -24.028290
 4289.464, -24.123955
 4335.106, -24.108698
 4381.235, -24.141226
 4427.854, -24.101309
 4474.969, -24.176065
 4522.585, -23.982237
 4570.708, -23.964617
 4619.343, -23.750723
 4668.496, -23.618481
 4718.171, -23.495123
 4768.376, -23.302887
 4819.114, -23.197365
 4870.393, -22.984968
 4922.216, -22.834579
 4974.592, -22.562027
 5027.524, -22.354645
 5081.021, -22.194611
 5135.085, -21.979702
 5189.726, -21.785910
 5244.948, -21.703907
 5300.757, -21.623085
 5357.161, -21.399588
 5414.164, -21.116055
 5471.774, -20.872293
 5529.997, -20.659809
 5588.839, -20.554365
 5648.308, -20.353868
 5708.409, -20.132607
 5769.150, -20.062128
 5830.538, -19.956291
 5892.578, -19.785870
 5955.279, -19.427740
 6018.646, -19.273258
 6082.688, -19.241436
 6147.412, -19.246313
 6212.824, -19.355551
 6278.932, -19.640223
 6345.744, -19.909901
 6413.267, -20.187716
 6481.507, -20.290813
 6550.475, -20.542131
 6620.176, -20.762625
 6690.619, -21.090376
 6761.811, -21.235128
 6833.760, -21.315716
 6906.476, -21.298578
 6979.965, -21.362482
 7054.236, -21.332804
 7129.297, -21.354362
 7205.157, -21.234510
 7281.825, -21.031733
 7359.308, -20.638006
 7437.615, -20.338213
 7516.756, -20.088945
 7596.739, -19.798393
 7677.572, -19.287333
 7759.267, -18.440149
 7841.830, -17.628771
 7925.271, -17.011333
 8009.601, -16.466497
 8094.828, -16.112659
 8180.962, -15.842540
 8268.013, -16.025211
 8355.989, -16.587011
 8444.902, -17.534458
 8534.761, -18.572714
 8625.576, -19.652948
 8717.357, -20.901522
 8810.115, -22.340193
 8903.860, -23.481159
 8998.603, -24.696007
 9094.354, -25.651457
 9191.123, -26.693483
 9288.922, -27.713989
 9387.762, -28.768755
 9487.653, -29.891426
 9588.607, -30.481007
 9690.636, -31.302185
 9793.750, -31.962061
 9897.962, -32.789597
10003.282, -33.476131
10109.723, -33.923061
10217.297, -34.306721
10326.015, -34.672249
10435.890, -34.997543
10546.934, -35.163513
10659.160, -35.432350
10772.580, -35.763702
10887.206, -35.938461
11003.053, -36.199753
11120.132, -36.634323
11238.457, -36.840813
11358.041, -36.963913
11478.897, -37.159744
11601.040, -37.499905
11724.481, -37.790005
11849.237, -37.832119
11975.320, -37.913155
12102.745, -37.768673
12231.525, -37.739140
12361.677, -37.555740
12493.212, -37.313652
12626.147, -37.189194
12760.497, -37.047001
12896.277, -36.654907
13033.501, -36.192165
13172.186, -35.834370
13312.346, -35.465076
13453.997, -34.886127
13597.155, -34.223091
13741.838, -33.600204
13888.059, -32.956821
14035.836, -31.963280
14185.187, -30.569206
14336.125, -28.670263
14488.670, -26.911194
14642.839, -25.802826
14798.647, -25.600422
14956.113, -26.255966
15115.256, -27.601290
15276.091, -29.294823
15438.638, -31.068645
15602.915, -32.975796
15768.939, -35.271908
15936.730, -37.671364
16106.307, -39.038799
16277.688, -39.731056
16450.893, -40.221985
16625.939, -40.762310
16802.850, -41.048542
16981.643, -40.830536
17162.336, -40.443405
17344.955, -39.344368
17529.516, -38.341728
17716.039, -37.491447
17904.549, -36.939419
18095.064, -37.018745
18287.607, -37.906990
18482.199, -40.142769
18678.859, -42.722702
18877.615, -45.031719
19078.484, -46.661755
19281.490, -47.978462
19486.656, -49.692501
19694.008, -51.254879
19903.563, -53.370430
20115.350, -57.754204
20329.389, -58.654671
20545.705, -58.959846
20764.324, -59.223671
20985.270, -59.796238
21208.564, -60.673782
21434.236, -61.341904
21662.311, -61.797859
21892.811, -62.719231
22125.764, -63.424377
22361.195, -62.560913
22599.131, -62.104607
22839.600, -62.462406
23082.627, -64.226387
23328.240, -65.820000
23576.467, -67.307007
23827.334, -67.725525
