Frequency(Hz),   Magnitude(dB)
   11.804, -27.329166
   11.929, -27.271587
   12.056, -27.145720
   12.184, -27.009048
   12.314, -26.869970
   12.445, -26.728647
   12.578, -26.585255
   12.711, -26.439980
   12.847, -26.293020
   12.983, -26.144409
   13.122, -25.994020
   13.261, -25.841690
   13.402, -25.687405
   13.545, -25.531370
   13.689, -25.373779
   13.835, -25.214823
   13.982, -25.054651
   14.131, -24.893436
   14.281, -24.731104
   14.433, -24.567524
   14.587, -24.402590
   14.742, -24.236338
   14.899, -24.069048
   15.057, -23.900997
   15.217, -23.732344
   15.379, -23.563112
   15.543, -23.393282
   15.708, -23.222902
   15.875, -23.052036
   16.044, -22.880808
   16.215, -22.709366
   16.388, -22.537920
   16.562, -22.366756
   16.738, -22.196001
   16.916, -22.025618
   17.096, -21.855566
   17.278, -21.685928
   17.462, -21.516935
   17.648, -21.348833
   17.836, -21.181690
   18.025, -21.015553
   18.217, -20.850498
   18.411, -20.686789
   18.607, -20.524734
   18.805, -20.364643
   19.005, -20.206846
   19.207, -20.051592
   19.412, -19.898827
   19.618, -19.748436
   19.827, -19.600611
   20.038, -19.455860
   20.251, -19.314611
   20.467, -19.177094
   20.684, -19.043505
   20.905, -18.914127
   21.127, -18.789391
   21.352, -18.669720
   21.579, -18.555374
   21.809, -18.446472
   22.041, -18.343201
   22.275, -18.245853
   22.512, -18.154772
   22.752, -18.070419
   22.994, -17.993353
   23.239, -17.923929
   23.486, -17.860851
   23.736, -17.801680
   23.988, -17.744169
   24.244, -17.687647
   24.501, -17.632151
   24.762, -17.577713
   25.026, -17.524267
   25.292, -17.471830
   25.561, -17.420553
   25.833, -17.370607
   26.108, -17.322088
   26.386, -17.274813
   26.667, -17.228523
   26.950, -17.183365
   27.237, -17.139744
   27.527, -17.097960
   27.820, -17.057949
   28.116, -17.019539
   28.415, -16.982721
   28.717, -16.947634
   29.023, -16.914429
   29.332, -16.883286
   29.644, -16.854313
   29.959, -16.827644
   30.278, -16.803358
   30.600, -16.781343
   30.926, -16.761412
   31.255, -16.743706
   31.587, -16.728579
   31.924, -16.716270
   32.263, -16.706802
   32.607, -16.700134
   32.953, -16.696260
   33.304, -16.695269
   33.658, -16.697203
   34.017, -16.702251
   34.379, -16.710720
   34.744, -16.722746
   35.114, -16.736504
   35.488, -16.750559
   35.865, -16.764343
   36.247, -16.779144
   36.633, -16.795401
   37.022, -16.813150
   37.416, -16.832172
   37.815, -16.852285
   38.217, -16.873671
   38.624, -16.896694
   39.035, -16.921715
   39.450, -16.948774
   39.870, -16.977810
   40.294, -17.008749
   40.723, -17.041628
   41.156, -17.076553
   41.594, -17.113646
   42.036, -17.152864
   42.484, -17.194111
   42.936, -17.237324
   43.393, -17.282660
   43.854, -17.330309
   44.321, -17.380432
   44.793, -17.433016
   45.269, -17.488077
   45.751, -17.545767
   46.238, -17.606119
   46.730, -17.666059
   47.227, -17.723427
   47.730, -17.778416
   48.237, -17.834421
   48.751, -17.893003
   49.269, -17.954273
   49.794, -18.018518
   50.323, -18.086107
   50.859, -18.157181
   51.400, -18.231752
   51.947, -18.309795
   52.500, -18.391289
   53.058, -18.476198
   53.623, -18.564631
   54.194, -18.657129
   54.770, -18.754381
   55.353, -18.856474
   55.942, -18.962896
   56.537, -19.073151
   57.139, -19.187357
   57.747, -19.306007
   58.361, -19.431612
   58.982, -19.571518
   59.610, -19.733425
   60.244, -19.921654
   60.885, -20.134464
   61.533, -20.368668
   62.188, -20.620930
   62.850, -20.888134
   63.518, -21.167061
   64.194, -21.454277
   64.877, -21.746088
   65.568, -22.038557
   66.265, -22.327290
   66.970, -22.607588
   67.683, -22.874462
   68.403, -23.122864
   69.131, -23.346308
   69.867, -23.523298
   70.610, -23.620577
   71.361, -23.628712
   72.121, -23.565336
   72.888, -23.457729
   73.664, -23.314716
   74.448, -23.143772
   75.240, -22.952887
   76.040, -22.750399
   76.849, -22.544863
   77.667, -22.345329
   78.494, -22.161530
   79.329, -22.004072
   80.173, -21.884216
   81.026, -21.813437
   81.888, -21.799812
   82.759, -21.834480
   83.640, -21.901236
   84.530, -21.985071
   85.430, -22.084543
   86.339, -22.200018
   87.257, -22.331293
   88.186, -22.478184
   89.124, -22.641001
   90.072, -22.820385
   91.031, -23.017084
   91.999, -23.231895
   92.978, -23.462051
   93.968, -23.701305
   94.968, -23.955944
   95.978, -24.237841
   96.999, -24.557430
   98.032, -24.907194
   99.075, -25.277294
  100.129, -25.657347
  101.194, -26.036194
  102.271, -26.401800
  103.359, -26.740767
  104.459, -27.028059
  105.571, -27.188377
  106.694, -27.198942
  107.829, -27.085575
  108.977, -26.922947
  110.136, -26.730330
  111.308, -26.521650
  112.492, -26.311543
  113.689, -26.115515
  114.899, -25.949909
  116.122, -25.830429
  117.357, -25.758474
  118.606, -25.721260
  119.868, -25.701590
  121.144, -25.692080
  122.433, -25.692730
  123.735, -25.703941
  125.052, -25.725763
  126.383, -25.757952
  127.727, -25.798306
  129.087, -25.841820
  130.460, -25.893406
  131.848, -25.960505
  133.251, -26.048874
  134.669, -26.150169
  136.102, -26.253342
  137.550, -26.347033
  139.014, -26.417940
  140.493, -26.424620
  141.988, -26.340601
  143.499, -26.165586
  145.026, -25.937162
  146.569, -25.684093
  148.129, -25.432287
  149.705, -25.207989
  151.298, -25.031157
  152.908, -24.900492
  154.535, -24.808270
  156.179, -24.747469
  157.841, -24.724724
  159.520, -24.745632
  161.218, -24.815924
  162.933, -24.946171
  164.667, -25.167023
  166.419, -25.496511
  168.190, -25.937262
  169.979, -26.456186
  171.788, -27.014729
  173.616, -27.551939
  175.463, -28.012701
  177.330, -28.379482
  179.217, -28.660595
  181.124, -28.864683
  183.052, -28.989666
  184.999, -29.038036
  186.968, -28.997923
  188.957, -28.874706
  190.968, -28.691137
  193.000, -28.481569
  195.054, -28.258303
  197.129, -28.024879
  199.227, -27.788326
  201.347, -27.546656
  203.489, -27.297239
  205.654, -27.038733
  207.843, -26.792141
  210.054, -26.664196
  212.289, -26.740671
  214.548, -27.027287
  216.831, -27.423952
  219.138, -27.831955
  221.470, -28.220119
  223.827, -28.587315
  226.208, -28.939543
  228.615, -29.269867
  231.048, -29.554878
  233.506, -29.733194
  235.991, -29.718824
  238.502, -29.493942
  241.040, -29.161915
  243.605, -28.886776
  246.197, -28.795298
  248.816, -28.931715
  251.464, -29.245022
  254.140, -29.597128
  256.844, -29.816200
  259.577, -29.802036
  262.339, -29.585798
  265.130, -29.302332
  267.952, -29.081873
  270.803, -28.974024
  273.684, -28.967312
  276.596, -29.018997
  279.540, -29.110411
  282.514, -29.242275
  285.520, -29.411837
  288.558, -29.599474
  291.629, -29.753838
  294.732, -29.837196
  297.868, -29.848656
  301.037, -29.814272
  304.241, -29.749697
  307.478, -29.652334
  310.750, -29.534014
  314.056, -29.439810
  317.398, -29.439631
  320.775, -29.544086
  324.189, -29.707483
  327.638, -29.865343
  331.124, -29.997791
  334.648, -30.101702
  338.209, -30.156820
  341.807, -30.118221
  345.444, -29.991388
  349.120, -29.875210
  352.835, -29.908346
  356.589, -30.113937
  360.384, -30.384171
  364.218, -30.573454
  368.094, -30.631638
  372.011, -30.585585
  375.969, -30.444050
  379.970, -30.223064
  384.013, -30.036856
  388.099, -30.096609
  392.228, -30.438585
  396.402, -30.788458
  400.620, -30.661047
  404.883, -30.091434
  409.191, -29.634022
  413.545, -29.577559
  417.945, -29.815870
  422.393, -29.979080
  426.887, -29.908201
  431.429, -29.767618
  436.020, -29.747494
  440.660, -29.842718
  445.348, -29.881958
  450.087, -29.763252
  454.876, -29.628065
  459.717, -29.671803
  464.608, -29.866919
  469.552, -29.955299
  474.548, -29.815203
  479.598, -29.712440
  484.701, -29.861706
  489.858, -30.194895
  495.071, -30.454258
  500.339, -30.492716
  505.663, -30.307732
  511.043, -29.994452
  516.481, -29.694824
  521.977, -29.518927
  527.531, -29.492029
  533.144, -29.563799
  538.817, -29.622345
  544.550, -29.598011
  550.345, -29.570856
  556.201, -29.626648
  562.119, -29.766279
  568.100, -29.910418
  574.145, -29.947241
  580.255, -29.850945
  586.429, -29.669943
  592.669, -29.526583
  598.975, -29.457045
  605.349, -29.494783
  611.790, -29.692234
  618.300, -29.925310
  624.879, -30.041479
  631.528, -29.966555
  638.248, -29.848198
  645.039, -29.845472
  651.903, -29.929863
  658.839, -29.996979
  665.850, -30.007519
  672.935, -30.034197
  680.095, -30.056887
  687.332, -29.938025
  694.645, -29.641663
  702.037, -29.444042
  709.507, -29.437321
  717.057, -29.577744
  724.686, -29.602825
  732.398, -29.489454
  740.191, -29.390802
  748.067, -29.354284
  756.027, -29.384764
  764.071, -29.509598
  772.201, -29.620644
  780.418, -29.616154
  788.722, -29.435686
  797.115, -29.331142
  805.597, -29.306807
  814.169, -29.316532
  822.832, -29.321671
  831.587, -29.426901
  840.436, -29.552662
  849.379, -29.523832
  858.417, -29.227995
  867.551, -28.861477
  876.782, -28.625067
  886.111, -28.510880
  895.540, -28.422695
  905.069, -28.395256
  914.700, -28.563997
  924.433, -28.841423
  934.269, -28.894903
  944.210, -28.679880
  954.257, -28.472919
  964.411, -28.350687
  974.673, -28.112457
  985.044, -27.875834
  995.526, -27.834457
 1006.119, -27.891779
 1016.824, -27.847172
 1027.644, -27.643202
 1038.579, -27.527937
 1049.630, -27.455481
 1060.799, -27.394081
 1072.086, -27.327621
 1083.494, -27.253706
 1095.023, -27.138212
 1106.674, -26.975178
 1118.450, -26.826733
 1130.351, -26.722702
 1142.379, -26.603716
 1154.534, -26.525349
 1166.819, -26.467049
 1179.235, -26.436174
 1191.783, -26.397196
 1204.464, -26.269075
 1217.280, -26.067774
 1230.233, -25.913744
 1243.323, -25.976938
 1256.553, -25.994345
 1269.923, -25.878748
 1283.436, -25.698872
 1297.093, -25.657982
 1310.895, -25.636629
 1324.843, -25.549109
 1338.940, -25.432911
 1353.188, -25.364994
 1367.586, -25.369894
 1382.138, -25.266750
 1396.845, -25.191708
 1411.708, -25.181509
 1426.730, -25.054749
 1441.911, -24.894249
 1457.254, -24.637726
 1472.760, -24.471624
 1488.431, -24.329279
 1504.269, -24.279989
 1520.275, -24.399492
 1536.452, -24.341280
 1552.801, -24.179279
 1569.323, -23.898912
 1586.022, -23.703165
 1602.898, -23.675083
 1619.954, -23.692047
 1637.191, -23.690815
 1654.612, -23.604239
 1672.218, -23.560032
 1690.011, -23.465750
 1707.994, -23.350967
 1726.168, -23.235487
 1744.536, -23.149443
 1763.099, -23.172596
 1781.859, -23.132093
 1800.819, -23.068186
 1819.981, -22.995100
 1839.347, -22.909189
 1858.918, -22.782818
 1878.698, -22.770439
 1898.689, -22.702627
 1918.892, -22.596325
 1939.310, -22.288786
 1959.946, -22.350719
 1980.801, -22.268185
 2001.878, -22.177229
 2023.179, -21.992008
 2044.707, -21.870930
 2066.464, -21.771843
 2088.452, -21.697515
 2110.674, -21.788067
 2133.133, -21.773932
 2155.831, -21.658903
 2178.771, -21.431692
 2201.954, -21.263350
 2225.384, -21.150000
 2249.063, -20.964916
 2272.995, -20.904526
 2297.181, -20.818571
 2321.624, -20.781605
 2346.328, -20.610327
 2371.294, -20.498075
 2396.526, -20.469162
 2422.027, -20.430794
 2447.798, -20.323034
 2473.844, -20.184584
 2500.168, -20.074802
 2526.771, -20.039185
 2553.657, -19.906696
 2580.830, -19.823288
 2608.291, -19.663704
 2636.045, -19.572691
 2664.094, -19.551193
 2692.442, -19.626884
 2721.091, -19.607838
 2750.045, -19.367098
 2779.307, -19.239374
 2808.881, -19.195461
 2838.769, -19.250645
 2868.975, -19.163300
 2899.503, -19.089579
 2930.355, -19.057383
 2961.536, -19.128044
 2993.049, -19.154375
 3024.896, -19.137949
 3057.083, -19.240770
 3089.612, -19.364347
 3122.488, -19.439909
 3155.713, -19.454214
 3189.292, -19.575018
 3223.228, -19.650105
 3257.525, -19.716288
 3292.187, -19.843494
 3327.218, -20.031624
 3362.621, -20.182724
 3398.402, -20.314241
 3434.563, -20.500803
 3471.108, -20.744629
 3508.043, -20.909313
 3545.371, -21.100277
 3583.096, -21.241104
 3621.222, -21.447767
 3659.754, -21.574684
 3698.696, -21.653000
 3738.052, -21.811882
 3777.827, -21.986462
 3818.026, -22.197369
 3858.652, -22.344501
 3899.710, -22.507378
 3941.206, -22.687178
 3983.142, -22.821970
 4025.525, -22.995716
 4068.360, -23.212149
 4111.649, -23.446230
 4155.400, -23.561844
 4199.616, -23.688129
 4244.302, -23.875998
 4289.464, -24.081726
 4335.106, -24.265167
 4381.235, -24.182320
 4427.854, -24.002489
 4474.969, -23.887856
 4522.585, -24.000967
 4570.708, -23.987419
 4619.343, -23.836515
 4668.496, -23.756573
 4718.171, -23.592607
 4768.376, -23.418005
 4819.114, -23.200350
 4870.393, -23.094316
 4922.216, -23.024084
 4974.592, -22.827091
 5027.524, -22.622551
 5081.021, -22.340561
 5135.085, -22.202566
 5189.726, -22.066900
 5244.948, -21.869627
 5300.757, -21.806677
 5357.161, -21.508821
 5414.164, -21.288660
 5471.774, -21.002432
 5529.997, -20.959740
 5588.839, -20.775761
 5648.308, -20.690048
 5708.409, -20.504454
 5769.150, -20.502707
 5830.538, -20.359409
 5892.578, -20.126179
 5955.279, -19.741909
 6018.646, -19.503685
 6082.688, -19.441402
 6147.412, -19.567272
 6212.824, -19.687201
 6278.932, -19.837767
 6345.744, -19.995781
 6413.267, -20.225729
 6481.507, -20.468454
 6550.475, -20.735260
 6620.176, -21.007957
 6690.619, -21.247332
 6761.811, -21.355377
 6833.760, -21.606853
 6906.476, -21.822861
 6979.965, -22.030130
 7054.236, -22.133804
 7129.297, -22.191765
 7205.157, -22.073677
 7281.825, -21.993656
 7359.308, -22.005013
 7437.615, -22.072308
 7516.756, -21.774679
 7596.739, -21.445198
 7677.572, -20.889811
 7759.267, -20.296696
 7841.830, -19.640690
 7925.271, -19.091774
 8009.601, -18.561357
 8094.828, -18.021315
 8180.962, -17.532652
 8268.013, -17.068722
 8355.989, -16.789381
 8444.902, -16.737427
 8534.761, -17.149364
 8625.576, -17.907515
 8717.357, -18.963951
 8810.115, -20.067730
 8903.860, -21.189499
 8998.603, -22.498341
 9094.354, -23.780386
 9191.123, -25.083586
 9288.922, -26.171316
 9387.762, -27.443014
 9487.653, -28.543627
 9588.607, -29.682514
 9690.636, -30.632467
 9793.750, -31.604700
 9897.962, -32.452709
10003.282, -32.872334
10109.723, -33.320919
10217.297, -33.591152
10326.015, -34.227821
10435.890, -34.692585
10546.934, -35.051575
10659.160, -35.284668
10772.580, -35.696201
10887.206, -36.050392
11003.053, -36.327339
11120.132, -36.476719
11238.457, -36.874733
11358.041, -37.139065
11478.897, -37.460102
11601.040, -37.674549
11724.481, -37.845753
11849.237, -38.076286
11975.320, -38.011642
12102.745, -38.022541
12231.525, -37.921661
12361.677, -38.043488
12493.212, -38.128853
12626.147, -38.217110
12760.497, -38.034893
12896.277, -37.550186
13033.501, -37.063423
13172.186, -36.621265
13312.346, -36.294289
13453.997, -35.962719
13597.155, -35.529255
13741.838, -34.959602
13888.059, -34.294571
14035.836, -33.462303
14185.187, -32.782494
14336.125, -31.572390
14488.670, -29.938404
14642.839, -28.390802
14798.647, -27.281073
14956.113, -26.922842
15115.256, -27.018270
15276.091, -28.070124
15438.638, -29.676205
15602.915, -32.262398
15768.939, -34.530796
15936.730, -36.856766
16106.307, -38.524864
16277.688, -39.754848
16450.893, -40.423630
16625.939, -40.499737
16802.850, -40.530163
16981.643, -40.380646
17162.336, -40.268425
17344.955, -39.697769
17529.516, -39.280907
17716.039, -38.582184
17904.549, -38.397160
18095.064, -38.596779
18287.607, -39.848412
18482.199, -41.915932
18678.859, -44.483814
18877.615, -47.282646
19078.484, -49.124695
19281.490, -51.033501
19486.656, -52.715946
19694.008, -54.414009
19903.563, -55.440044
20115.350, -59.808578
20329.389, -60.862511
20545.705, -61.637192
20764.324, -63.015411
20985.270, -63.379944
21208.564, -64.124847
21434.236, -64.551620
21662.311, -64.804802
21892.811, -65.284027
22125.764, -65.934357
22361.195, -66.863792
22599.131, -66.409805
22839.600, -66.260155
23082.627, -66.511185
23328.240, -67.543976
23576.467, -68.333588
23827.334, -68.758377
