Frequency(Hz),   Magnitude(dB)
   11.804, -19.410322
   11.929, -19.457504
   12.056, -19.513950
   12.184, -19.570179
   12.314, -19.624916
   12.445, -19.678267
   12.578, -19.730396
   12.711, -19.781445
   12.847, -19.831553
   12.983, -19.880724
   13.122, -19.928785
   13.261, -19.975515
   13.402, -20.020863
   13.545, -20.064966
   13.689, -20.107971
   13.835, -20.150002
   13.982, -20.191160
   14.131, -20.231525
   14.281, -20.270979
   14.433, -20.309320
   14.587, -20.346346
   14.742, -20.382034
   14.899, -20.416580
   15.057, -20.450165
   15.217, -20.482870
   15.379, -20.514616
   15.543, -20.545296
   15.708, -20.574835
   15.875, -20.603210
   16.044, -20.630423
   16.215, -20.656506
   16.388, -20.681564
   16.562, -20.705732
   16.738, -20.729012
   16.916, -20.751242
   17.096, -20.772221
   17.278, -20.791897
   17.462, -20.810339
   17.648, -20.827631
   17.836, -20.843679
   18.025, -20.858339
   18.217, -20.871517
   18.411, -20.883293
   18.607, -20.893759
   18.805, -20.903030
   19.005, -20.911221
   19.207, -20.918358
   19.412, -20.924160
   19.618, -20.928265
   19.827, -20.930624
   20.038, -20.931490
   20.251, -20.931004
   20.467, -20.929127
   20.684, -20.925762
   20.905, -20.920897
   21.127, -20.914644
   21.352, -20.907116
   21.579, -20.898209
   21.809, -20.887716
   22.041, -20.875454
   22.275, -20.861334
   22.512, -20.845316
   22.752, -20.827454
   22.994, -20.807875
   23.239, -20.786573
   23.486, -20.762281
   23.736, -20.732969
   23.988, -20.696945
   24.244, -20.653736
   24.501, -20.603495
   24.762, -20.546310
   25.026, -20.482222
   25.292, -20.411350
   25.561, -20.333961
   25.833, -20.250380
   26.108, -20.160862
   26.386, -20.065416
   26.667, -19.963985
   26.950, -19.856915
   27.237, -19.744877
   27.527, -19.628458
   27.820, -19.507862
   28.116, -19.383268
   28.415, -19.255003
   28.717, -19.123575
   29.023, -18.989576
   29.332, -18.853586
   29.644, -18.716209
   29.959, -18.578094
   30.278, -18.439873
   30.600, -18.302006
   30.926, -18.164925
   31.255, -18.029440
   31.587, -17.896620
   31.924, -17.767458
   32.263, -17.642757
   32.607, -17.523336
   32.953, -17.410105
   33.304, -17.304085
   33.658, -17.206341
   34.017, -17.118130
   34.379, -17.040873
   34.744, -16.978254
   35.114, -16.954428
   35.488, -16.974062
   35.865, -17.028587
   36.247, -17.090586
   36.633, -17.154516
   37.022, -17.220074
   37.416, -17.287046
   37.815, -17.355244
   38.217, -17.424847
   38.624, -17.496202
   39.035, -17.569660
   39.450, -17.645271
   39.870, -17.722954
   40.294, -17.802616
   40.723, -17.884304
   41.156, -17.968124
   41.594, -18.054159
   42.036, -18.142378
   42.484, -18.232662
   42.936, -18.324951
   43.393, -18.419392
   43.854, -18.516165
   44.321, -18.615412
   44.793, -18.717110
   45.269, -18.821257
   45.751, -18.928013
   46.238, -19.037432
   46.730, -19.146963
   47.227, -19.255257
   47.730, -19.363146
   48.237, -19.474054
   48.751, -19.589170
   49.269, -19.708233
   49.794, -19.831139
   50.323, -19.957808
   50.859, -20.087944
   51.400, -20.221079
   51.947, -20.356676
   52.500, -20.494169
   53.058, -20.632933
   53.623, -20.772472
   54.194, -20.912693
   54.770, -21.053576
   55.353, -21.194511
   55.942, -21.334179
   56.537, -21.471298
   57.139, -21.605131
   57.747, -21.734110
   58.361, -21.846191
   58.982, -21.932062
   59.610, -21.993128
   60.244, -22.043293
   60.885, -22.090879
   61.533, -22.136379
   62.188, -22.179720
   62.850, -22.221323
   63.518, -22.261784
   64.194, -22.301693
   64.877, -22.341715
   65.568, -22.382538
   66.265, -22.424736
   66.970, -22.468866
   67.683, -22.515566
   68.403, -22.565775
   69.131, -22.620476
   69.867, -22.679411
   70.610, -22.740746
   71.361, -22.803526
   72.121, -22.868181
   72.888, -22.935898
   73.664, -23.006479
   74.448, -23.079638
   75.240, -23.155075
   76.040, -23.232300
   76.849, -23.310472
   77.667, -23.388706
   78.494, -23.466166
   79.329, -23.542320
   80.173, -23.616632
   81.026, -23.688313
   81.888, -23.755808
   82.759, -23.816893
   83.640, -23.870182
   84.530, -23.916100
   85.430, -23.956577
   86.339, -23.993212
   87.257, -24.027079
   88.186, -24.059319
   89.124, -24.091740
   90.072, -24.126547
   91.031, -24.166176
   91.999, -24.213589
   92.978, -24.272522
   93.968, -24.348688
   94.968, -24.445932
   95.978, -24.564922
   96.999, -24.701931
   98.032, -24.852491
   99.075, -25.012011
  100.129, -25.175713
  101.194, -25.338467
  102.271, -25.494741
  103.359, -25.638548
  104.459, -25.762018
  105.571, -25.853243
  106.694, -25.912645
  107.829, -25.948271
  108.977, -25.972591
  110.136, -25.986740
  111.308, -25.990282
  112.492, -25.982630
  113.689, -25.963194
  114.899, -25.931494
  116.122, -25.887630
  117.357, -25.832069
  118.606, -25.761381
  119.868, -25.672770
  121.144, -25.566557
  122.433, -25.449209
  123.735, -25.327908
  125.052, -25.209902
  126.383, -25.102901
  127.727, -25.017141
  129.087, -24.966948
  130.460, -24.949612
  131.848, -24.953625
  133.251, -24.962753
  134.669, -24.974337
  136.102, -24.986271
  137.550, -24.996773
  139.014, -25.005568
  140.493, -25.012972
  141.988, -25.019428
  143.499, -25.025555
  145.026, -25.031878
  146.569, -25.038857
  148.129, -25.046326
  149.705, -25.053703
  151.298, -25.057631
  152.908, -25.048950
  154.535, -25.021463
  156.179, -24.974939
  157.841, -24.918491
  159.520, -24.861666
  161.218, -24.813740
  162.933, -24.778067
  164.667, -24.753214
  166.419, -24.736118
  168.190, -24.733934
  169.979, -24.757730
  171.788, -24.813505
  173.616, -24.887564
  175.463, -24.961554
  177.330, -25.016073
  179.217, -25.036375
  181.124, -25.014614
  183.052, -24.961508
  184.999, -24.900158
  186.968, -24.869095
  188.957, -24.895615
  190.968, -24.984596
  193.000, -25.110731
  195.054, -25.245378
  197.129, -25.363842
  199.227, -25.450880
  201.347, -25.508577
  203.489, -25.547009
  205.654, -25.571199
  207.843, -25.578934
  210.054, -25.570951
  212.289, -25.543905
  214.548, -25.495695
  216.831, -25.430067
  219.138, -25.365238
  221.470, -25.335541
  223.827, -25.367605
  226.208, -25.460701
  228.615, -25.582142
  231.048, -25.697599
  233.506, -25.797171
  235.991, -25.888029
  238.502, -25.978241
  241.040, -26.064810
  243.605, -26.137333
  246.197, -26.153381
  248.816, -26.079733
  251.464, -25.922773
  254.140, -25.755070
  256.844, -25.674965
  259.577, -25.736179
  262.339, -25.927446
  265.130, -26.172411
  267.952, -26.396622
  270.803, -26.569992
  273.684, -26.688984
  276.596, -26.760038
  279.540, -26.768930
  282.514, -26.678770
  285.520, -26.481567
  288.558, -26.233643
  291.629, -26.059980
  294.732, -26.045158
  297.868, -26.182741
  301.037, -26.372557
  304.241, -26.487215
  307.478, -26.484953
  310.750, -26.391066
  314.056, -26.252869
  317.398, -26.077023
  320.775, -25.868435
  324.189, -25.650438
  327.638, -25.471880
  331.124, -25.360970
  334.648, -25.300123
  338.209, -25.230864
  341.807, -25.106987
  345.444, -24.932499
  349.120, -24.771355
  352.835, -24.698147
  356.589, -24.721395
  360.384, -24.783108
  364.218, -24.815607
  368.094, -24.808378
  372.011, -24.786272
  375.969, -24.772081
  379.970, -24.770012
  384.013, -24.766928
  388.099, -24.741470
  392.228, -24.690466
  396.402, -24.640501
  400.620, -24.617756
  404.883, -24.622522
  409.191, -24.636854
  413.545, -24.650505
  417.945, -24.661118
  422.393, -24.662165
  426.887, -24.652225
  431.429, -24.635496
  436.020, -24.620598
  440.660, -24.612396
  445.348, -24.629807
  450.087, -24.679844
  454.876, -24.719236
  459.717, -24.681053
  464.608, -24.577822
  469.552, -24.492682
  474.548, -24.466692
  479.598, -24.463369
  484.701, -24.435452
  489.858, -24.370148
  495.071, -24.272083
  500.339, -24.156294
  505.663, -24.044809
  511.043, -23.965809
  516.481, -23.959227
  521.977, -24.020679
  527.531, -24.115089
  533.144, -24.183807
  538.817, -24.205561
  544.550, -24.188646
  550.345, -24.168100
  556.201, -24.187672
  562.119, -24.282576
  568.100, -24.432074
  574.145, -24.496744
  580.255, -24.430202
  586.429, -24.388838
  592.669, -24.489361
  598.975, -24.654665
  605.349, -24.701893
  611.790, -24.610561
  618.300, -24.492247
  624.879, -24.433521
  631.528, -24.408960
  638.248, -24.345612
  645.039, -24.230066
  651.903, -24.158007
  658.839, -24.194252
  665.850, -24.307322
  672.935, -24.416769
  680.095, -24.404764
  687.332, -24.342159
  694.645, -24.345881
  702.037, -24.429003
  709.507, -24.501255
  717.057, -24.485199
  724.686, -24.425385
  732.398, -24.359516
  740.191, -24.345255
  748.067, -24.385632
  756.027, -24.452599
  764.071, -24.489819
  772.201, -24.452425
  780.418, -24.350727
  788.722, -24.245962
  797.115, -24.215366
  805.597, -24.193748
  814.169, -24.102280
  822.832, -23.935270
  831.587, -23.802931
  840.436, -23.787777
  849.379, -23.864414
  858.417, -23.913120
  867.551, -23.878748
  876.782, -23.846138
  886.111, -23.886847
  895.540, -23.942896
  905.069, -23.909344
  914.700, -23.838188
  924.433, -23.855022
  934.269, -23.861372
  944.210, -23.749470
  954.257, -23.551359
  964.411, -23.439894
  974.673, -23.406914
  985.044, -23.308392
  995.526, -23.246874
 1006.119, -23.238726
 1016.824, -23.255497
 1027.644, -23.175447
 1038.579, -23.051151
 1049.630, -22.975491
 1060.799, -22.921625
 1072.086, -22.865913
 1083.494, -22.785351
 1095.023, -22.688854
 1106.674, -22.628397
 1118.450, -22.567156
 1130.351, -22.509970
 1142.379, -22.442377
 1154.534, -22.346758
 1166.819, -22.230713
 1179.235, -22.073200
 1191.783, -21.939913
 1204.464, -21.884415
 1217.280, -21.849911
 1230.233, -21.866455
 1243.323, -21.802048
 1256.553, -21.681324
 1269.923, -21.536163
 1283.436, -21.409855
 1297.093, -21.326193
 1310.895, -21.215996
 1324.843, -21.110012
 1338.940, -21.025581
 1353.188, -20.985235
 1367.586, -20.957977
 1382.138, -20.919302
 1396.845, -20.881721
 1411.708, -20.824734
 1426.730, -20.741470
 1441.911, -20.611078
 1457.254, -20.537489
 1472.760, -20.451105
 1488.431, -20.405310
 1504.269, -20.373491
 1520.275, -20.357296
 1536.452, -20.337240
 1552.801, -20.250713
 1569.323, -20.183397
 1586.022, -20.062103
 1602.898, -19.953999
 1619.954, -19.846842
 1637.191, -19.793310
 1654.612, -19.764526
 1672.218, -19.750551
 1690.011, -19.735853
 1707.994, -19.734396
 1726.168, -19.670624
 1744.536, -19.566145
 1763.099, -19.413765
 1781.859, -19.299620
 1800.819, -19.197689
 1819.981, -19.124889
 1839.347, -19.000717
 1858.918, -18.849007
 1878.698, -18.608948
 1898.689, -18.325968
 1918.892, -18.014635
 1939.310, -17.766539
 1959.946, -17.500008
 1980.801, -17.340540
 2001.878, -17.186451
 2023.179, -17.117598
 2044.707, -16.987898
 2066.464, -16.840631
 2088.452, -16.668467
 2110.674, -16.473907
 2133.133, -16.356394
 2155.831, -16.269632
 2178.771, -16.148918
 2201.954, -15.985249
 2225.384, -15.771180
 2249.063, -15.611341
 2272.995, -15.432886
 2297.181, -15.260166
 2321.624, -15.092842
 2346.328, -14.971947
 2371.294, -14.865522
 2396.526, -14.659807
 2422.027, -14.445371
 2447.798, -14.252364
 2473.844, -14.148970
 2500.168, -14.023424
 2526.771, -13.865554
 2553.657, -13.686069
 2580.830, -13.539967
 2608.291, -13.425768
 2636.045, -13.335213
 2664.094, -13.226672
 2692.442, -13.142796
 2721.091, -13.046196
 2750.045, -12.956555
 2779.307, -12.879548
 2808.881, -12.802296
 2838.769, -12.711776
 2868.975, -12.621133
 2899.503, -12.589879
 2930.355, -12.598413
 2961.536, -12.639645
 2993.049, -12.681749
 3024.896, -12.767644
 3057.083, -12.846507
 3089.612, -12.939854
 3122.488, -13.035957
 3155.713, -13.135510
 3189.292, -13.240724
 3223.228, -13.413341
 3257.525, -13.597953
 3292.187, -13.782360
 3327.218, -13.958454
 3362.621, -14.161168
 3398.402, -14.448335
 3434.563, -14.707298
 3471.108, -14.986830
 3508.043, -15.268740
 3545.371, -15.564397
 3583.096, -15.889295
 3621.222, -16.141151
 3659.754, -16.397511
 3698.696, -16.642433
 3738.052, -16.876284
 3777.827, -17.108513
 3818.026, -17.300528
 3858.652, -17.487858
 3899.710, -17.697874
 3941.206, -17.882090
 3983.142, -18.078270
 4025.525, -18.254887
 4068.360, -18.441917
 4111.649, -18.587679
 4155.400, -18.709568
 4199.616, -18.829254
 4244.302, -18.902042
 4289.464, -18.937578
 4335.106, -18.928530
 4381.235, -18.880224
 4427.854, -18.767361
 4474.969, -18.650591
 4522.585, -18.529709
 4570.708, -18.397886
 4619.343, -18.189466
 4668.496, -18.012774
 4718.171, -17.851746
 4768.376, -17.687233
 4819.114, -17.559395
 4870.393, -17.446991
 4922.216, -17.403976
 4974.592, -17.415113
 5027.524, -17.473358
 5081.021, -17.602926
 5135.085, -17.778881
 5189.726, -18.052322
 5244.948, -18.383165
 5300.757, -18.766973
 5357.161, -19.228901
 5414.164, -19.701975
 5471.774, -20.209576
 5529.997, -20.734787
 5588.839, -21.241936
 5648.308, -21.778143
 5708.409, -22.292240
 5769.150, -22.867180
 5830.538, -23.374613
 5892.578, -23.928745
 5955.279, -24.441854
 6018.646, -24.965349
 6082.688, -25.533340
 6147.412, -26.058275
 6212.824, -26.611296
 6278.932, -26.995054
 6345.744, -27.414528
 6413.267, -27.744764
 6481.507, -28.010569
 6550.475, -28.236891
 6620.176, -28.378296
 6690.619, -28.433277
 6761.811, -28.393913
 6833.760, -28.152359
 6906.476, -27.860668
 6979.965, -27.372623
 7054.236, -26.829315
 7129.297, -26.013605
 7205.157, -25.179365
 7281.825, -24.219227
 7359.308, -23.271778
 7437.615, -22.233326
 7516.756, -21.181856
 7596.739, -19.943790
 7677.572, -18.592762
 7759.267, -17.192581
 7841.830, -15.735384
 7925.271, -14.184358
 8009.601, -12.639249
 8094.828, -11.180246
 8180.962, -9.769904
 8268.013, -8.449099
 8355.989, -7.369443
 8444.902, -6.670263
 8534.761, -6.376493
 8625.576, -6.512604
 8717.357, -7.028322
 8810.115, -7.839900
 8903.860, -8.745689
 8998.603, -9.686842
 9094.354, -10.576231
 9191.123, -11.417062
 9288.922, -12.151979
 9387.762, -12.869870
 9487.653, -13.551391
 9588.607, -14.172890
 9690.636, -14.776516
 9793.750, -15.347053
 9897.962, -15.841516
10003.282, -16.306095
10109.723, -16.743334
10217.297, -17.155622
10326.015, -17.556335
10435.890, -17.910416
10546.934, -18.279675
10659.160, -18.618378
10772.580, -18.923471
10887.206, -19.194702
11003.053, -19.387486
11120.132, -19.511026
11238.457, -19.480230
11358.041, -19.371874
11478.897, -19.171633
11601.040, -18.821592
11724.481, -18.273687
11849.237, -17.513409
11975.320, -16.526180
12102.745, -15.325638
12231.525, -13.986534
12361.677, -12.964992
12493.212, -12.644368
12626.147, -13.246981
12760.497, -14.756856
12896.277, -16.926226
13033.501, -19.286772
13172.186, -21.404747
13312.346, -23.238409
13453.997, -24.953074
13597.155, -26.538614
13741.838, -28.017357
13888.059, -29.424204
14035.836, -30.695837
14185.187, -31.827026
14336.125, -32.835930
14488.670, -33.783363
14642.839, -34.557232
14798.647, -35.254364
14956.113, -35.828655
15115.256, -36.340244
15276.091, -36.773632
15438.638, -37.381721
15602.915, -38.180576
15768.939, -39.260517
15936.730, -40.202713
16106.307, -40.718361
16277.688, -40.584404
16450.893, -39.988899
16625.939, -39.211075
16802.850, -38.366596
16981.643, -37.722832
17162.336, -37.144505
17344.955, -36.547920
17529.516, -36.120018
17716.039, -36.498055
17904.549, -37.943913
18095.064, -40.456856
18287.607, -43.252983
18482.199, -45.841286
18678.859, -48.264267
18877.615, -50.268505
19078.484, -51.775536
19281.490, -53.085312
19486.656, -54.482853
19694.008, -55.296558
19903.563, -54.904091
20115.350, -57.909069
20329.389, -57.237263
20545.705, -56.297562
20764.324, -55.634308
20985.270, -55.056496
21208.564, -54.575241
21434.236, -53.903915
21662.311, -53.339470
21892.811, -52.908791
22125.764, -52.642448
22361.195, -52.484131
22599.131, -52.520172
22839.600, -53.159721
23082.627, -54.897430
23328.240, -57.895081
23576.467, -62.064507
23827.334, -65.116302
