Frequency(Hz),   Magnitude(dB)
   11.804, -11.470230
   11.929, -11.551497
   12.056, -11.668653
   12.184, -11.790019
   12.314, -11.910969
   12.445, -12.031638
   12.578, -12.152194
   12.711, -12.272766
   12.847, -12.393512
   12.983, -12.514430
   13.122, -12.635351
   13.261, -12.756067
   13.402, -12.876527
   13.545, -12.996856
   13.689, -13.117205
   13.835, -13.237703
   13.982, -13.358446
   14.131, -13.479520
   14.281, -13.600781
   14.433, -13.722045
   14.587, -13.843078
   14.742, -13.963891
   14.899, -14.084630
   15.057, -14.205495
   15.217, -14.326531
   15.379, -14.447664
   15.543, -14.568771
   15.708, -14.689750
   15.875, -14.810583
   16.044, -14.931227
   16.215, -15.051704
   16.388, -15.172093
   16.562, -15.292515
   16.738, -15.412936
   16.916, -15.533165
   17.096, -15.652973
   17.278, -15.772269
   17.462, -15.891096
   17.648, -16.009487
   17.836, -16.127312
   18.025, -16.244377
   18.217, -16.360542
   18.411, -16.475840
   18.607, -16.590313
   18.805, -16.704012
   19.005, -16.816992
   19.207, -16.929224
   19.412, -17.040340
   19.618, -17.149912
   19.827, -17.257824
   20.038, -17.364233
   20.251, -17.469213
   20.467, -17.572622
   20.684, -17.674267
   20.905, -17.774048
   21.127, -17.871965
   21.352, -17.968006
   21.579, -18.061972
   21.809, -18.153522
   22.041, -18.242331
   22.275, -18.328203
   22.512, -18.410938
   22.752, -18.490427
   22.994, -18.566673
   23.239, -18.639700
   23.486, -18.710022
   23.736, -18.778605
   23.988, -18.846512
   24.244, -18.914215
   24.501, -18.981810
   24.762, -19.049252
   25.026, -19.116417
   25.292, -19.183237
   25.561, -19.249796
   25.833, -19.316208
   26.108, -19.382483
   26.386, -19.448360
   26.667, -19.513517
   26.950, -19.577993
   27.237, -19.642128
   27.527, -19.706144
   27.820, -19.769865
   28.116, -19.833059
   28.415, -19.895596
   28.717, -19.957535
   29.023, -20.018934
   29.332, -20.079859
   29.644, -20.140331
   29.959, -20.200361
   30.278, -20.259941
   30.600, -20.318836
   30.926, -20.376743
   31.255, -20.433691
   31.587, -20.489918
   31.924, -20.545549
   32.263, -20.600454
   32.607, -20.654469
   32.953, -20.707481
   33.304, -20.759409
   33.658, -20.810181
   34.017, -20.859842
   34.379, -20.908537
   34.744, -20.956659
   35.114, -21.006666
   35.488, -21.059412
   35.865, -21.114519
   36.247, -21.169594
   36.633, -21.224188
   37.022, -21.278206
   37.416, -21.331369
   37.815, -21.383411
   38.217, -21.434437
   38.624, -21.484726
   39.035, -21.534542
   39.450, -21.583870
   39.870, -21.632551
   40.294, -21.680399
   40.723, -21.727392
   41.156, -21.773533
   41.594, -21.818846
   42.036, -21.863176
   42.484, -21.906340
   42.936, -21.948170
   43.393, -21.988708
   43.854, -22.028070
   44.321, -22.066254
   44.793, -22.103168
   45.269, -22.138689
   45.751, -22.172861
   46.238, -22.205748
   46.730, -22.235695
   47.227, -22.261019
   47.730, -22.281122
   48.237, -22.297207
   48.751, -22.310032
   49.269, -22.319813
   49.794, -22.327028
   50.323, -22.332247
   50.859, -22.335850
   51.400, -22.338074
   51.947, -22.339193
   52.500, -22.339453
   53.058, -22.339132
   53.623, -22.338692
   54.194, -22.339046
   54.770, -22.341255
   55.353, -22.345863
   55.942, -22.352789
   56.537, -22.362020
   57.139, -22.374193
   57.747, -22.390162
   58.361, -22.410242
   58.982, -22.434258
   59.610, -22.461992
   60.244, -22.493484
   60.885, -22.528587
   61.533, -22.566429
   62.188, -22.606184
   62.850, -22.647463
   63.518, -22.689936
   64.194, -22.733307
   64.877, -22.777201
   65.568, -22.821247
   66.265, -22.864876
   66.970, -22.907433
   67.683, -22.948267
   68.403, -22.986956
   69.131, -23.023184
   69.867, -23.057104
   70.610, -23.088665
   71.361, -23.116941
   72.121, -23.140799
   72.888, -23.159849
   73.664, -23.174908
   74.448, -23.187021
   75.240, -23.197304
   76.040, -23.206770
   76.849, -23.216230
   77.667, -23.226505
   78.494, -23.238609
   79.329, -23.253967
   80.173, -23.274111
   81.026, -23.300663
   81.888, -23.336658
   82.759, -23.385536
   83.640, -23.449459
   84.530, -23.527897
   85.430, -23.618891
   86.339, -23.719784
   87.257, -23.827065
   88.186, -23.937019
   89.124, -24.046221
   90.072, -24.151342
   91.031, -24.248917
   91.999, -24.335192
   92.978, -24.401621
   93.968, -24.432545
   94.968, -24.428556
   95.978, -24.401663
   96.999, -24.369308
   98.032, -24.333702
   99.075, -24.295801
  100.129, -24.256762
  101.194, -24.217833
  102.271, -24.180254
  103.359, -24.145323
  104.459, -24.113735
  105.571, -24.083128
  106.694, -24.052094
  107.829, -24.020456
  108.977, -23.990494
  110.136, -23.962805
  111.308, -23.937336
  112.492, -23.913939
  113.689, -23.892462
  114.899, -23.872921
  116.122, -23.857124
  117.357, -23.853348
  118.606, -23.864275
  119.868, -23.888588
  121.144, -23.919867
  122.433, -23.957977
  123.735, -24.003225
  125.052, -24.055498
  126.383, -24.114523
  127.727, -24.178967
  129.087, -24.247257
  130.460, -24.323629
  131.848, -24.413301
  133.251, -24.518923
  134.669, -24.634447
  136.102, -24.751820
  137.550, -24.862925
  139.014, -24.959867
  140.493, -25.026552
  141.988, -25.053036
  143.499, -25.039879
  145.026, -25.002151
  146.569, -24.953274
  148.129, -24.905668
  149.705, -24.872219
  151.298, -24.866276
  152.908, -24.895828
  154.535, -24.959122
  156.179, -25.045902
  157.841, -25.145752
  159.520, -25.250574
  161.218, -25.351355
  162.933, -25.434462
  164.667, -25.486313
  166.419, -25.499439
  168.190, -25.487890
  169.979, -25.479481
  171.788, -25.504137
  173.616, -25.574381
  175.463, -25.703102
  177.330, -25.896305
  179.217, -26.142237
  181.124, -26.406693
  183.052, -26.655758
  184.999, -26.860416
  186.968, -26.976763
  188.957, -26.997150
  190.968, -26.949947
  193.000, -26.885595
  195.054, -26.820944
  197.129, -26.759602
  199.227, -26.703445
  201.347, -26.653769
  203.489, -26.609507
  205.654, -26.567646
  207.843, -26.525522
  210.054, -26.481510
  212.289, -26.432415
  214.548, -26.376156
  216.831, -26.313389
  219.138, -26.250029
  221.470, -26.201706
  223.827, -26.192753
  226.208, -26.233435
  228.615, -26.304722
  231.048, -26.366926
  233.506, -26.387104
  235.991, -26.352259
  238.502, -26.271534
  241.040, -26.169876
  243.605, -26.082087
  246.197, -26.041229
  248.816, -26.063892
  251.464, -26.137159
  254.140, -26.219652
  256.844, -26.253778
  259.577, -26.204205
  262.339, -26.078957
  265.130, -25.926001
  267.952, -25.799212
  270.803, -25.723997
  273.684, -25.694473
  276.596, -25.682758
  279.540, -25.664404
  282.514, -25.631016
  285.520, -25.584322
  288.558, -25.530699
  291.629, -25.472822
  294.732, -25.410269
  297.868, -25.343431
  301.037, -25.278616
  304.241, -25.259865
  307.478, -25.325905
  310.750, -25.470512
  314.056, -25.611771
  317.398, -25.652628
  320.775, -25.569763
  324.189, -25.437206
  327.638, -25.384304
  331.124, -25.480761
  334.648, -25.689671
  338.209, -25.864380
  341.807, -25.873598
  345.444, -25.724812
  349.120, -25.556572
  352.835, -25.495953
  356.589, -25.559427
  360.384, -25.643293
  364.218, -25.606031
  368.094, -25.418282
  372.011, -25.169744
  375.969, -24.952106
  379.970, -24.791145
  384.013, -24.684158
  388.099, -24.631330
  392.228, -24.623165
  396.402, -24.642284
  400.620, -24.675882
  404.883, -24.714523
  409.191, -24.722418
  413.545, -24.669474
  417.945, -24.574667
  422.393, -24.499754
  426.887, -24.471113
  431.429, -24.450674
  436.020, -24.387110
  440.660, -24.283560
  445.348, -24.190048
  450.087, -24.143288
  454.876, -24.149912
  459.717, -24.195328
  464.608, -24.267038
  469.552, -24.350565
  474.548, -24.435040
  479.598, -24.478008
  484.701, -24.449871
  489.858, -24.399836
  495.071, -24.417032
  500.339, -24.482317
  505.663, -24.463472
  511.043, -24.351789
  516.481, -24.325714
  521.977, -24.459770
  527.531, -24.625973
  533.144, -24.650373
  538.817, -24.522352
  544.550, -24.331736
  550.345, -24.222851
  556.201, -24.245712
  562.119, -24.333492
  568.100, -24.366699
  574.145, -24.353779
  580.255, -24.355082
  586.429, -24.366446
  592.669, -24.356056
  598.975, -24.294472
  605.349, -24.216692
  611.790, -24.187817
  618.300, -24.219296
  624.879, -24.263348
  631.528, -24.300194
  638.248, -24.360556
  645.039, -24.456135
  651.903, -24.546648
  658.839, -24.578754
  665.850, -24.507898
  672.935, -24.360435
  680.095, -24.367208
  687.332, -24.502872
  694.645, -24.622360
  702.037, -24.563013
  709.507, -24.467371
  717.057, -24.455816
  724.686, -24.420254
  732.398, -24.304108
  740.191, -24.151659
  748.067, -24.123390
  756.027, -24.224737
  764.071, -24.320560
  772.201, -24.308277
  780.418, -24.219587
  788.722, -24.148897
  797.115, -24.135391
  805.597, -24.195150
  814.169, -24.297592
  822.832, -24.357080
  831.587, -24.341518
  840.436, -24.293015
  849.379, -24.258101
  858.417, -24.205956
  867.551, -24.127676
  876.782, -24.022387
  886.111, -23.922848
  895.540, -23.818861
  905.069, -23.704390
  914.700, -23.572857
  924.433, -23.526253
  934.269, -23.516876
  944.210, -23.515371
  954.257, -23.457270
  964.411, -23.415623
  974.673, -23.441771
  985.044, -23.459158
  995.526, -23.477272
 1006.119, -23.406734
 1016.824, -23.314405
 1027.644, -23.175953
 1038.579, -23.090662
 1049.630, -23.025730
 1060.799, -22.936779
 1072.086, -22.800920
 1083.494, -22.672064
 1095.023, -22.591122
 1106.674, -22.520832
 1118.450, -22.426889
 1130.351, -22.348274
 1142.379, -22.300833
 1154.534, -22.266602
 1166.819, -22.206900
 1179.235, -22.103222
 1191.783, -22.046324
 1204.464, -21.951677
 1217.280, -21.826488
 1230.233, -21.694574
 1243.323, -21.600203
 1256.553, -21.524397
 1269.923, -21.447281
 1283.436, -21.402121
 1297.093, -21.360830
 1310.895, -21.318659
 1324.843, -21.237938
 1338.940, -21.154928
 1353.188, -21.033892
 1367.586, -20.954754
 1382.138, -20.875681
 1396.845, -20.801651
 1411.708, -20.723825
 1426.730, -20.661476
 1441.911, -20.612690
 1457.254, -20.588425
 1472.760, -20.593641
 1488.431, -20.561665
 1504.269, -20.456633
 1520.275, -20.323393
 1536.452, -20.265429
 1552.801, -20.187733
 1569.323, -20.141655
 1586.022, -20.077639
 1602.898, -20.052332
 1619.954, -19.960510
 1637.191, -19.858503
 1654.612, -19.748457
 1672.218, -19.726919
 1690.011, -19.697973
 1707.994, -19.681257
 1726.168, -19.550489
 1744.536, -19.469519
 1763.099, -19.396074
 1781.859, -19.346025
 1800.819, -19.311510
 1819.981, -19.227114
 1839.347, -19.049889
 1858.918, -18.745886
 1878.698, -18.451544
 1898.689, -18.222685
 1918.892, -17.975925
 1939.310, -17.730433
 1959.946, -17.489212
 1980.801, -17.310089
 2001.878, -17.175732
 2023.179, -17.050898
 2044.707, -16.952269
 2066.464, -16.824362
 2088.452, -16.731972
 2110.674, -16.600946
 2133.133, -16.463940
 2155.831, -16.252991
 2178.771, -16.095341
 2201.954, -15.934036
 2225.384, -15.802909
 2249.063, -15.626610
 2272.995, -15.463394
 2297.181, -15.281052
 2321.624, -15.095598
 2346.328, -14.935163
 2371.294, -14.800310
 2396.526, -14.640877
 2422.027, -14.497384
 2447.798, -14.334275
 2473.844, -14.196663
 2500.168, -14.011637
 2526.771, -13.853747
 2553.657, -13.697217
 2580.830, -13.576378
 2608.291, -13.455933
 2636.045, -13.355316
 2664.094, -13.232337
 2692.442, -13.114595
 2721.091, -13.014172
 2750.045, -12.930625
 2779.307, -12.867370
 2808.881, -12.754917
 2838.769, -12.685130
 2868.975, -12.628848
 2899.503, -12.652888
 2930.355, -12.660431
 2961.536, -12.693537
 2993.049, -12.709396
 3024.896, -12.780404
 3057.083, -12.838239
 3089.612, -12.904749
 3122.488, -12.968742
 3155.713, -13.094369
 3189.292, -13.255458
 3223.228, -13.422677
 3257.525, -13.569791
 3292.187, -13.743011
 3327.218, -13.950682
 3362.621, -14.195691
 3398.402, -14.446485
 3434.563, -14.702196
 3471.108, -14.970474
 3508.043, -15.277723
 3545.371, -15.581677
 3583.096, -15.870126
 3621.222, -16.148237
 3659.754, -16.408020
 3698.696, -16.668697
 3738.052, -16.871067
 3777.827, -17.109362
 3818.026, -17.316816
 3858.652, -17.499073
 3899.710, -17.681776
 3941.206, -17.865343
 3983.142, -18.089266
 4025.525, -18.254734
 4068.360, -18.429586
 4111.649, -18.558649
 4155.400, -18.693785
 4199.616, -18.796181
 4244.302, -18.871515
 4289.464, -18.918514
 4335.106, -18.945267
 4381.235, -18.893757
 4427.854, -18.814596
 4474.969, -18.663637
 4522.585, -18.530205
 4570.708, -18.319323
 4619.343, -18.184717
 4668.496, -18.010294
 4718.171, -17.893154
 4768.376, -17.703226
 4819.114, -17.570877
 4870.393, -17.433859
 4922.216, -17.393124
 4974.592, -17.375317
 5027.524, -17.433895
 5081.021, -17.555147
 5135.085, -17.796400
 5189.726, -18.059580
 5244.948, -18.381964
 5300.757, -18.751553
 5357.161, -19.243607
 5414.164, -19.713076
 5471.774, -20.224224
 5529.997, -20.709476
 5588.839, -21.250643
 5648.308, -21.776588
 5708.409, -22.326887
 5769.150, -22.876268
 5830.538, -23.410643
 5892.578, -23.956146
 5955.279, -24.493858
 6018.646, -25.031143
 6082.688, -25.528915
 6147.412, -26.066563
 6212.824, -26.547667
 6278.932, -27.032114
 6345.744, -27.411076
 6413.267, -27.793097
 6481.507, -28.091068
 6550.475, -28.352066
 6620.176, -28.500509
 6690.619, -28.511297
 6761.811, -28.450314
 6833.760, -28.294628
 6906.476, -28.024519
 6979.965, -27.484222
 7054.236, -26.863895
 7129.297, -26.078817
 7205.157, -25.224398
 7281.825, -24.296227
 7359.308, -23.360489
 7437.615, -22.396242
 7516.756, -21.289555
 7596.739, -20.058317
 7677.572, -18.698353
 7759.267, -17.312372
 7841.830, -15.893017
 7925.271, -14.398906
 8009.601, -12.901204
 8094.828, -11.417196
 8180.962, -9.961020
 8268.013, -8.630373
 8355.989, -7.484504
 8444.902, -6.688340
 8534.761, -6.290905
 8625.576, -6.372571
 8717.357, -6.878071
 8810.115, -7.677651
 8903.860, -8.594446
 8998.603, -9.509048
 9094.354, -10.399925
 9191.123, -11.250722
 9288.922, -12.031435
 9387.762, -12.768504
 9487.653, -13.438352
 9588.607, -14.049837
 9690.636, -14.646997
 9793.750, -15.208388
 9897.962, -15.744413
10003.282, -16.198235
10109.723, -16.624897
10217.297, -17.053980
10326.015, -17.506592
10435.890, -17.903282
10546.934, -18.276957
10659.160, -18.598951
10772.580, -18.902262
10887.206, -19.166378
11003.053, -19.354183
11120.132, -19.452261
11238.457, -19.445774
11358.041, -19.390022
11478.897, -19.190716
11601.040, -18.847551
11724.481, -18.317356
11849.237, -17.578974
11975.320, -16.632668
12102.745, -15.443483
12231.525, -14.096512
12361.677, -13.005685
12493.212, -12.627984
12626.147, -13.190075
12760.497, -14.690328
12896.277, -16.828102
13033.501, -19.131809
13172.186, -21.208138
13312.346, -23.134687
13453.997, -24.887470
13597.155, -26.502422
13741.838, -28.023546
13888.059, -29.451899
14035.836, -30.739019
14185.187, -31.859852
14336.125, -32.869518
14488.670, -33.764519
14642.839, -34.571136
14798.647, -35.281513
14956.113, -35.915821
15115.256, -36.453274
15276.091, -36.927876
15438.638, -37.535187
15602.915, -38.441845
15768.939, -39.518276
15936.730, -40.446404
16106.307, -40.867729
16277.688, -40.715218
16450.893, -40.123909
16625.939, -39.325771
16802.850, -38.526615
16981.643, -37.996231
17162.336, -37.483124
17344.955, -36.867409
17529.516, -36.289497
17716.039, -36.552231
17904.549, -37.835941
18095.064, -40.239639
18287.607, -42.925301
18482.199, -45.434944
18678.859, -47.762280
18877.615, -49.844807
19078.484, -51.625935
19281.490, -52.943748
19486.656, -53.852848
19694.008, -54.607224
19903.563, -55.100967
20115.350, -58.329849
20329.389, -57.792816
20545.705, -56.675919
20764.324, -55.871704
20985.270, -55.156155
21208.564, -54.658081
21434.236, -54.294670
21662.311, -53.873795
21892.811, -53.292351
22125.764, -52.961006
22361.195, -52.794437
22599.131, -52.721779
22839.600, -53.302326
23082.627, -54.908981
23328.240, -58.406876
23576.467, -62.155113
23827.334, -65.421310
