Frequency(Hz),   Magnitude(dB)
   11.804, -12.575386
   11.929, -12.625745
   12.056, -12.688035
   12.184, -12.751037
   12.314, -12.813154
   12.445, -12.874543
   12.578, -12.935351
   12.711, -12.995728
   12.847, -13.055810
   12.983, -13.115617
   13.122, -13.174978
   13.261, -13.233667
   13.402, -13.291661
   13.545, -13.349057
   13.689, -13.406044
   13.835, -13.462723
   13.982, -13.519207
   14.131, -13.575574
   14.281, -13.631700
   14.433, -13.687388
   14.587, -13.742417
   14.742, -13.796788
   14.899, -13.850675
   15.057, -13.904239
   15.217, -13.957583
   15.379, -14.010605
   15.543, -14.063190
   15.708, -14.115256
   15.875, -14.166777
   16.044, -14.217726
   16.215, -14.268118
   16.388, -14.318059
   16.562, -14.367651
   16.738, -14.416900
   16.916, -14.465603
   17.096, -14.513533
   17.278, -14.560626
   17.462, -14.606926
   17.648, -14.652475
   17.836, -14.697163
   18.025, -14.740805
   18.217, -14.783270
   18.411, -14.824599
   18.607, -14.864849
   18.805, -14.904095
   19.005, -14.942402
   19.207, -14.979752
   19.412, -15.015795
   19.618, -15.050121
   19.827, -15.082645
   20.038, -15.113513
   20.251, -15.142850
   20.467, -15.170507
   20.684, -15.196335
   20.905, -15.220233
   21.127, -15.242237
   21.352, -15.262366
   21.579, -15.280427
   21.809, -15.296124
   22.041, -15.309162
   22.275, -15.319350
   22.512, -15.326537
   22.752, -15.330647
   22.994, -15.331696
   23.239, -15.329745
   23.486, -15.325185
   23.736, -15.318808
   23.988, -15.311452
   24.244, -15.303527
   24.501, -15.295142
   24.762, -15.286271
   25.026, -15.276811
   25.292, -15.266726
   25.561, -15.256113
   25.833, -15.245115
   26.108, -15.233770
   26.386, -15.221847
   26.667, -15.209051
   26.950, -15.195460
   27.237, -15.181440
   27.527, -15.167247
   27.820, -15.152745
   28.116, -15.137750
   28.415, -15.122169
   28.717, -15.106099
   29.023, -15.089640
   29.332, -15.072906
   29.644, -15.055970
   29.959, -15.038904
   30.278, -15.021750
   30.600, -15.004324
   30.926, -14.986395
   31.255, -14.968031
   31.587, -14.949546
   31.924, -14.931136
   32.263, -14.912741
   32.607, -14.894285
   32.953, -14.875706
   33.304, -14.857022
   33.658, -14.838243
   34.017, -14.819498
   34.379, -14.801026
   34.744, -14.783021
   35.114, -14.764611
   35.488, -14.745239
   35.865, -14.724767
   36.247, -14.703978
   36.633, -14.683155
   37.022, -14.662263
   37.416, -14.641048
   37.815, -14.619295
   38.217, -14.597135
   38.624, -14.574888
   39.035, -14.552864
   39.450, -14.531077
   39.870, -14.509397
   40.294, -14.487693
   40.723, -14.465981
   41.156, -14.444317
   41.594, -14.422740
   42.036, -14.401171
   42.484, -14.379465
   42.936, -14.357494
   43.393, -14.335368
   43.854, -14.313217
   44.321, -14.291129
   44.793, -14.269040
   45.269, -14.246902
   45.751, -14.224807
   46.238, -14.203915
   46.730, -14.194531
   47.227, -14.203939
   47.730, -14.232492
   48.237, -14.270960
   48.751, -14.314294
   49.269, -14.361648
   49.794, -14.412837
   50.323, -14.467686
   50.859, -14.525790
   51.400, -14.586541
   51.947, -14.649307
   52.500, -14.713378
   53.058, -14.777984
   53.623, -14.842487
   54.194, -14.906634
   54.770, -14.970231
   55.353, -15.032488
   55.942, -15.091913
   56.537, -15.147007
   57.139, -15.196821
   57.747, -15.240504
   58.361, -15.276664
   58.982, -15.305846
   59.610, -15.330320
   60.244, -15.353240
   60.885, -15.375686
   61.533, -15.397334
   62.188, -15.417883
   62.850, -15.437504
   63.518, -15.456469
   64.194, -15.475111
   64.877, -15.493761
   65.568, -15.512773
   66.265, -15.532342
   66.970, -15.552657
   67.683, -15.573952
   68.403, -15.596715
   69.131, -15.621536
   69.867, -15.648256
   70.610, -15.675535
   71.361, -15.702399
   72.121, -15.728852
   72.888, -15.755655
   73.664, -15.783074
   74.448, -15.811352
   75.240, -15.840766
   76.040, -15.871441
   76.849, -15.903208
   77.667, -15.935855
   78.494, -15.969332
   79.329, -16.003868
   80.173, -16.039785
   81.026, -16.077305
   81.888, -16.117249
   82.759, -16.161081
   83.640, -16.210184
   84.530, -16.265104
   85.430, -16.325466
   86.339, -16.390272
   87.257, -16.457766
   88.186, -16.526131
   89.124, -16.593962
   90.072, -16.660078
   91.031, -16.723320
   91.999, -16.782597
   92.978, -16.834711
   93.968, -16.872702
   94.968, -16.896046
   95.978, -16.909187
   96.999, -16.919577
   98.032, -16.928230
   99.075, -16.935705
  100.129, -16.942738
  101.194, -16.950119
  102.271, -16.958612
  103.359, -16.969019
  104.459, -16.981834
  105.571, -16.996050
  106.694, -17.010715
  107.829, -17.025475
  108.977, -17.041241
  110.136, -17.058470
  111.308, -17.077080
  112.492, -17.096865
  113.689, -17.117645
  114.899, -17.139275
  116.122, -17.161472
  117.357, -17.183722
  118.606, -17.206245
  119.868, -17.229786
  121.144, -17.255524
  122.433, -17.283888
  123.735, -17.315069
  125.052, -17.348831
  126.383, -17.384844
  127.727, -17.423500
  129.087, -17.471554
  130.460, -17.536453
  131.848, -17.622482
  133.251, -17.725452
  134.669, -17.838469
  136.102, -17.953323
  137.550, -18.061701
  139.014, -18.156031
  140.493, -18.226187
  141.988, -18.267395
  143.499, -18.282104
  145.026, -18.280407
  146.569, -18.271479
  148.129, -18.263832
  149.705, -18.266069
  151.298, -18.284941
  152.908, -18.324287
  154.535, -18.386112
  156.179, -18.468134
  157.841, -18.565161
  159.520, -18.667599
  161.218, -18.763372
  162.933, -18.825727
  164.667, -18.812958
  166.419, -18.705454
  168.190, -18.527651
  169.979, -18.335163
  171.788, -18.175913
  173.616, -18.079597
  175.463, -18.071400
  177.330, -18.150600
  179.217, -18.290827
  181.124, -18.445181
  183.052, -18.581303
  184.999, -18.676270
  186.968, -18.711687
  188.957, -18.684172
  190.968, -18.607586
  193.000, -18.505459
  195.054, -18.401049
  197.129, -18.318430
  199.227, -18.277514
  201.347, -18.281090
  203.489, -18.317089
  205.654, -18.365360
  207.843, -18.411995
  210.054, -18.448502
  212.289, -18.471447
  214.548, -18.482145
  216.831, -18.484753
  219.138, -18.487329
  221.470, -18.505163
  223.827, -18.555023
  226.208, -18.641701
  228.615, -18.748121
  231.048, -18.846670
  233.506, -18.918308
  235.991, -18.964058
  238.502, -18.995485
  241.040, -19.023775
  243.605, -19.056091
  246.197, -19.096258
  248.816, -19.147198
  251.464, -19.206560
  254.140, -19.268024
  256.844, -19.320433
  259.577, -19.358521
  262.339, -19.384745
  265.130, -19.407436
  267.952, -19.431461
  270.803, -19.458099
  273.684, -19.487074
  276.596, -19.517092
  279.540, -19.546516
  282.514, -19.573458
  285.520, -19.597441
  288.558, -19.620283
  291.629, -19.647675
  294.732, -19.685677
  297.868, -19.734825
  301.037, -19.788418
  304.241, -19.836796
  307.478, -19.876781
  310.750, -19.909885
  314.056, -19.939535
  317.398, -19.966135
  320.775, -19.989948
  324.189, -20.012878
  327.638, -20.039131
  331.124, -20.073027
  334.648, -20.112278
  338.209, -20.139425
  341.807, -20.130962
  345.444, -20.086174
  349.120, -20.033873
  352.835, -20.003284
  356.589, -20.000803
  360.384, -20.018646
  364.218, -20.054302
  368.094, -20.105648
  372.011, -20.153179
  375.969, -20.148144
  379.970, -20.074816
  384.013, -19.992224
  388.099, -20.004379
  392.228, -20.128317
  396.402, -20.262678
  400.620, -20.287502
  404.883, -20.201097
  409.191, -20.094828
  413.545, -20.027245
  417.945, -20.005308
  422.393, -20.022663
  426.887, -20.072224
  431.429, -20.111294
  436.020, -20.081671
  440.660, -19.993923
  445.348, -19.943193
  450.087, -19.982111
  454.876, -20.067184
  459.717, -20.122213
  464.608, -20.127672
  469.552, -20.101336
  474.548, -20.060125
  479.598, -20.053694
  484.701, -20.113533
  489.858, -20.214169
  495.071, -20.289663
  500.339, -20.300980
  505.663, -20.243263
  511.043, -20.159485
  516.481, -20.153952
  521.977, -20.253342
  527.531, -20.366968
  533.144, -20.402136
  538.817, -20.417585
  544.550, -20.485968
  550.345, -20.602522
  556.201, -20.716965
  562.119, -20.804201
  568.100, -20.862251
  574.145, -20.912931
  580.255, -20.979961
  586.429, -21.063547
  592.669, -21.142679
  598.975, -21.187468
  605.349, -21.215574
  611.790, -21.276592
  618.300, -21.370489
  624.879, -21.448196
  631.528, -21.476631
  638.248, -21.489519
  645.039, -21.483418
  651.903, -21.467539
  658.839, -21.474916
  665.850, -21.535448
  672.935, -21.625574
  680.095, -21.660442
  687.332, -21.629194
  694.645, -21.573521
  702.037, -21.605268
  709.507, -21.706274
  717.057, -21.775410
  724.686, -21.770699
  732.398, -21.765541
  740.191, -21.884680
  748.067, -22.055996
  756.027, -22.177675
  764.071, -22.167688
  772.201, -22.142673
  780.418, -22.128284
  788.722, -22.084774
  797.115, -22.040216
  805.597, -22.014641
  814.169, -22.033951
  822.832, -22.040930
  831.587, -22.048475
  840.436, -22.047598
  849.379, -22.035543
  858.417, -22.075266
  867.551, -22.104914
  876.782, -22.086161
  886.111, -22.037777
  895.540, -22.065483
  905.069, -22.105221
  914.700, -22.145445
  924.433, -22.134985
  934.269, -22.133171
  944.210, -22.078756
  954.257, -21.994619
  964.411, -21.889715
  974.673, -21.793039
  985.044, -21.727657
  995.526, -21.698078
 1006.119, -21.638384
 1016.824, -21.611029
 1027.644, -21.591661
 1038.579, -21.583370
 1049.630, -21.510208
 1060.799, -21.436125
 1072.086, -21.397818
 1083.494, -21.380245
 1095.023, -21.345585
 1106.674, -21.295685
 1118.450, -21.240366
 1130.351, -21.160959
 1142.379, -21.107195
 1154.534, -21.031574
 1166.819, -20.940601
 1179.235, -20.822361
 1191.783, -20.756184
 1204.464, -20.741827
 1217.280, -20.730793
 1230.233, -20.705538
 1243.323, -20.662712
 1256.553, -20.619894
 1269.923, -20.561327
 1283.436, -20.477695
 1297.093, -20.377058
 1310.895, -20.333399
 1324.843, -20.317738
 1338.940, -20.297174
 1353.188, -20.206970
 1367.586, -20.155508
 1382.138, -20.121916
 1396.845, -20.111713
 1411.708, -20.082289
 1426.730, -20.019339
 1441.911, -19.930489
 1457.254, -19.839361
 1472.760, -19.779814
 1488.431, -19.733885
 1504.269, -19.688877
 1520.275, -19.652330
 1536.452, -19.591610
 1552.801, -19.499771
 1569.323, -19.438330
 1586.022, -19.392185
 1602.898, -19.316181
 1619.954, -19.195034
 1637.191, -19.090109
 1654.612, -19.037750
 1672.218, -18.970112
 1690.011, -18.911020
 1707.994, -18.875307
 1726.168, -18.867201
 1744.536, -18.819427
 1763.099, -18.668850
 1781.859, -18.574627
 1800.819, -18.482634
 1819.981, -18.399343
 1839.347, -18.204723
 1858.918, -17.993437
 1878.698, -17.704798
 1898.689, -17.411499
 1918.892, -17.101788
 1939.310, -16.864592
 1959.946, -16.645267
 1980.801, -16.444782
 2001.878, -16.289196
 2023.179, -16.159460
 2044.707, -16.065208
 2066.464, -15.976842
 2088.452, -15.899090
 2110.674, -15.754245
 2133.133, -15.581725
 2155.831, -15.470301
 2178.771, -15.392463
 2201.954, -15.321930
 2225.384, -15.209628
 2249.063, -15.131357
 2272.995, -15.016970
 2297.181, -14.901175
 2321.624, -14.779493
 2346.328, -14.678501
 2371.294, -14.564447
 2396.526, -14.460260
 2422.027, -14.324283
 2447.798, -14.224813
 2473.844, -14.097977
 2500.168, -14.024979
 2526.771, -13.956229
 2553.657, -13.897765
 2580.830, -13.810314
 2608.291, -13.721903
 2636.045, -13.658632
 2664.094, -13.585273
 2692.442, -13.531017
 2721.091, -13.456295
 2750.045, -13.388312
 2779.307, -13.318114
 2808.881, -13.280029
 2838.769, -13.240617
 2868.975, -13.195054
 2899.503, -13.154283
 2930.355, -13.186306
 2961.536, -13.263405
 2993.049, -13.354614
 3024.896, -13.408303
 3057.083, -13.468226
 3089.612, -13.564844
 3122.488, -13.696033
 3155.713, -13.844834
 3189.292, -13.996139
 3223.228, -14.150998
 3257.525, -14.346921
 3292.187, -14.562284
 3327.218, -14.819374
 3362.621, -15.081349
 3398.402, -15.403840
 3434.563, -15.721130
 3471.108, -16.030807
 3508.043, -16.398148
 3545.371, -16.768974
 3583.096, -17.188580
 3621.222, -17.479862
 3659.754, -17.829920
 3698.696, -18.141857
 3738.052, -18.525969
 3777.827, -18.862825
 3818.026, -19.242733
 3858.652, -19.566429
 3899.710, -19.906279
 3941.206, -20.236464
 3983.142, -20.567503
 4025.525, -20.866772
 4068.360, -21.166260
 4111.649, -21.522030
 4155.400, -21.876434
 4199.616, -22.182955
 4244.302, -22.435272
 4289.464, -22.625275
 4335.106, -22.745230
 4381.235, -22.814016
 4427.854, -22.863564
 4474.969, -22.849323
 4522.585, -22.780617
 4570.708, -22.698404
 4619.343, -22.558592
 4668.496, -22.370827
 4718.171, -22.118942
 4768.376, -21.840361
 4819.114, -21.548090
 4870.393, -21.258541
 4922.216, -21.004097
 4974.592, -20.756302
 5027.524, -20.528368
 5081.021, -20.334269
 5135.085, -20.228842
 5189.726, -20.172941
 5244.948, -20.190722
 5300.757, -20.232151
 5357.161, -20.347656
 5414.164, -20.482653
 5471.774, -20.632025
 5529.997, -20.813828
 5588.839, -21.008686
 5648.308, -21.197021
 5708.409, -21.367319
 5769.150, -21.506392
 5830.538, -21.681288
 5892.578, -21.833809
 5955.279, -21.998913
 6018.646, -22.147528
 6082.688, -22.303379
 6147.412, -22.427828
 6212.824, -22.535873
 6278.932, -22.668329
 6345.744, -22.781979
 6413.267, -22.809195
 6481.507, -22.835150
 6550.475, -22.792421
 6620.176, -22.761812
 6690.619, -22.646267
 6761.811, -22.563196
 6833.760, -22.454269
 6906.476, -22.320297
 6979.965, -22.066189
 7054.236, -21.725460
 7129.297, -21.347239
 7205.157, -20.918110
 7281.825, -20.513554
 7359.308, -20.021942
 7437.615, -19.559452
 7516.756, -18.954865
 7596.739, -18.275013
 7677.572, -17.461637
 7759.267, -16.589602
 7841.830, -15.667473
 7925.271, -14.644610
 8009.601, -13.644174
 8094.828, -12.614592
 8180.962, -11.641471
 8268.013, -10.687496
 8355.989, -9.878504
 8444.902, -9.361823
 8534.761, -9.223482
 8625.576, -9.529362
 8717.357, -10.177360
 8810.115, -11.065283
 8903.860, -12.027779
 8998.603, -12.983704
 9094.354, -13.942492
 9191.123, -14.776618
 9288.922, -15.545811
 9387.762, -16.205164
 9487.653, -16.839334
 9588.607, -17.416384
 9690.636, -17.931480
 9793.750, -18.418617
 9897.962, -18.846487
10003.282, -19.225664
10109.723, -19.541080
10217.297, -19.782633
10326.015, -20.026962
10435.890, -20.262606
10546.934, -20.467594
10659.160, -20.561289
10772.580, -20.636366
10887.206, -20.648855
11003.053, -20.623505
11120.132, -20.482124
11238.457, -20.247089
11358.041, -19.932787
11478.897, -19.474424
11601.040, -18.851233
11724.481, -18.091269
11849.237, -17.150850
11975.320, -15.993218
12102.745, -14.541107
12231.525, -12.994188
12361.677, -11.658525
12493.212, -11.018239
12626.147, -11.275383
12760.497, -12.445855
12896.277, -14.223371
13033.501, -16.111704
13172.186, -17.829327
13312.346, -19.322021
13453.997, -20.593943
13597.155, -21.648935
13741.838, -22.703693
13888.059, -23.662361
14035.836, -24.509886
14185.187, -25.189148
14336.125, -25.733204
14488.670, -26.244499
14642.839, -26.695332
14798.647, -27.157257
14956.113, -27.542816
15115.256, -27.907782
15276.091, -28.269079
15438.638, -28.780762
15602.915, -29.620853
15768.939, -30.711178
15936.730, -31.740961
16106.307, -32.354401
16277.688, -32.439964
16450.893, -32.022198
16625.939, -31.386580
16802.850, -30.743736
16981.643, -30.417030
17162.336, -30.099503
17344.955, -29.658852
17529.516, -29.379009
17716.039, -29.969465
17904.549, -31.709078
18095.064, -34.488285
18287.607, -37.448738
18482.199, -40.068344
18678.859, -42.335300
18877.615, -44.373615
19078.484, -46.154503
19281.490, -47.568775
19486.656, -48.852268
19694.008, -50.082592
19903.563, -50.916416
20115.350, -54.519394
20329.389, -54.022018
20545.705, -52.997379
20764.324, -52.035019
20985.270, -51.489532
21208.564, -51.311256
21434.236, -50.954903
21662.311, -50.629501
21892.811, -50.415955
22125.764, -50.161736
22361.195, -50.008629
22599.131, -50.013256
22839.600, -50.880402
23082.627, -52.572334
23328.240, -55.661602
23576.467, -59.321129
23827.334, -61.609108
