Frequency(Hz),   Magnitude(dB)
   11.804, -27.709969
   11.929, -27.619259
   12.056, -27.436466
   12.184, -27.239132
   12.314, -27.038475
   12.445, -26.834686
   12.578, -26.627970
   12.711, -26.418522
   12.847, -26.206551
   12.983, -25.992117
   13.122, -25.775133
   13.261, -25.555464
   13.402, -25.333124
   13.545, -25.108339
   13.689, -24.881350
   13.835, -24.652374
   13.982, -24.421631
   14.131, -24.189293
   14.281, -23.955366
   14.433, -23.719755
   14.587, -23.482409
   14.742, -23.243420
   14.899, -23.003136
   15.057, -22.761881
   15.217, -22.519899
   15.379, -22.277273
   15.543, -22.034077
   15.708, -21.790417
   15.875, -21.546461
   16.044, -21.302410
   16.215, -21.058508
   16.388, -20.815079
   16.562, -20.572485
   16.738, -20.330996
   16.916, -20.090670
   17.096, -19.851601
   17.278, -19.614004
   17.462, -19.378235
   17.648, -19.144691
   17.836, -18.913586
   18.025, -18.685125
   18.217, -18.459541
   18.411, -18.237286
   18.607, -18.018850
   18.805, -17.804724
   19.005, -17.595438
   19.207, -17.391441
   19.412, -17.192919
   19.618, -16.999966
   19.827, -16.813030
   20.038, -16.632860
   20.251, -16.460140
   20.467, -16.295376
   20.684, -16.139051
   20.905, -15.991755
   21.127, -15.854200
   21.352, -15.727178
   21.579, -15.611247
   21.809, -15.506914
   22.041, -15.414705
   22.275, -15.335305
   22.512, -15.269460
   22.752, -15.218046
   22.994, -15.182055
   23.239, -15.162089
   23.486, -15.155221
   23.736, -15.156073
   23.988, -15.159474
   24.244, -15.163585
   24.501, -15.168332
   24.762, -15.173661
   25.026, -15.179460
   25.292, -15.185673
   25.561, -15.192360
   25.833, -15.199644
   26.108, -15.207535
   26.386, -15.215743
   26.667, -15.223967
   26.950, -15.232224
   27.237, -15.240835
   27.527, -15.250016
   27.820, -15.259576
   28.116, -15.269252
   28.415, -15.278915
   28.717, -15.288594
   29.023, -15.298304
   29.332, -15.308102
   29.644, -15.317964
   29.959, -15.327877
   30.278, -15.337789
   30.600, -15.347427
   30.926, -15.356430
   31.255, -15.364798
   31.587, -15.372701
   31.924, -15.380202
   32.263, -15.387127
   32.607, -15.393238
   32.953, -15.398348
   33.304, -15.402305
   33.658, -15.404954
   34.017, -15.406237
   34.379, -15.406247
   34.744, -15.405122
   35.114, -15.403859
   35.488, -15.402798
   35.865, -15.401866
   36.247, -15.400236
   36.633, -15.397810
   37.022, -15.394599
   37.416, -15.390379
   37.815, -15.384953
   38.217, -15.378499
   38.624, -15.371397
   39.035, -15.363983
   39.450, -15.356349
   39.870, -15.348401
   40.294, -15.340077
   40.723, -15.331460
   41.156, -15.322660
   41.594, -15.313825
   42.036, -15.304920
   42.484, -15.295908
   42.936, -15.286755
   43.393, -15.277646
   43.854, -15.268837
   44.321, -15.260520
   44.793, -15.252746
   45.269, -15.245580
   45.751, -15.239259
   46.238, -15.234236
   46.730, -15.231385
   47.227, -15.230856
   47.730, -15.232115
   48.237, -15.234095
   48.751, -15.236239
   49.269, -15.238370
   49.794, -15.240655
   50.323, -15.243319
   50.859, -15.246348
   51.400, -15.249621
   51.947, -15.252945
   52.500, -15.256143
   53.058, -15.258998
   53.623, -15.261436
   54.194, -15.263843
   54.770, -15.266681
   55.353, -15.269867
   55.942, -15.272673
   56.537, -15.274380
   57.139, -15.274879
   57.747, -15.274322
   58.361, -15.273269
   58.982, -15.272229
   59.610, -15.271374
   60.244, -15.270499
   60.885, -15.269332
   61.533, -15.267415
   62.188, -15.264399
   62.850, -15.260387
   63.518, -15.255615
   64.194, -15.250349
   64.877, -15.244862
   65.568, -15.239440
   66.265, -15.234214
   66.970, -15.229276
   67.683, -15.224802
   68.403, -15.221196
   69.131, -15.219172
   69.867, -15.221315
   70.610, -15.231495
   71.361, -15.250653
   72.121, -15.276935
   72.888, -15.307266
   73.664, -15.340922
   74.448, -15.377430
   75.240, -15.416286
   76.040, -15.456783
   76.849, -15.497887
   77.667, -15.538430
   78.494, -15.577362
   79.329, -15.613854
   80.173, -15.647081
   81.026, -15.676018
   81.888, -15.699530
   82.759, -15.717202
   83.640, -15.729617
   84.530, -15.738161
   85.430, -15.744183
   86.339, -15.748478
   87.257, -15.751246
   88.186, -15.752719
   89.124, -15.753709
   90.072, -15.755384
   91.031, -15.759069
   91.999, -15.766484
   92.978, -15.779099
   93.968, -15.797053
   94.968, -15.820235
   95.978, -15.848424
   96.999, -15.881484
   98.032, -15.918118
   99.075, -15.956967
  100.129, -15.996768
  101.194, -16.036137
  102.271, -16.073545
  103.359, -16.107327
  104.459, -16.135277
  105.571, -16.153345
  106.694, -16.159180
  107.829, -16.153139
  108.977, -16.138721
  110.136, -16.118929
  111.308, -16.096359
  112.492, -16.073677
  113.689, -16.053755
  114.899, -16.039745
  116.122, -16.035641
  117.357, -16.046474
  118.606, -16.071812
  119.868, -16.107826
  121.144, -16.148947
  122.433, -16.193466
  123.735, -16.239782
  125.052, -16.285770
  126.383, -16.329031
  127.727, -16.367115
  129.087, -16.399605
  130.460, -16.427454
  131.848, -16.452868
  133.251, -16.477350
  134.669, -16.501904
  136.102, -16.526827
  137.550, -16.552902
  139.014, -16.583241
  140.493, -16.627800
  141.988, -16.689131
  143.499, -16.764780
  145.026, -16.845671
  146.569, -16.930632
  148.129, -17.019535
  149.705, -17.112066
  151.298, -17.207575
  152.908, -17.304457
  154.535, -17.400948
  156.179, -17.495520
  157.841, -17.589676
  159.520, -17.686325
  161.218, -17.787945
  162.933, -17.891432
  164.667, -17.990843
  166.419, -18.081732
  168.190, -18.173819
  169.979, -18.283588
  171.788, -18.424431
  173.616, -18.589603
  175.463, -18.757082
  177.330, -18.905491
  179.217, -19.019558
  181.124, -19.096931
  183.052, -19.145163
  184.999, -19.179276
  186.968, -19.212929
  188.957, -19.251894
  190.968, -19.297417
  193.000, -19.348917
  195.054, -19.408596
  197.129, -19.479195
  199.227, -19.561903
  201.347, -19.659245
  203.489, -19.770346
  205.654, -19.890505
  207.843, -20.010620
  210.054, -20.121132
  212.289, -20.218521
  214.548, -20.305351
  216.831, -20.387362
  219.138, -20.466347
  221.470, -20.544758
  223.827, -20.628111
  226.208, -20.719347
  228.615, -20.810823
  231.048, -20.890919
  233.506, -20.948490
  235.991, -20.985008
  238.502, -21.008444
  241.040, -21.026930
  243.605, -21.041994
  246.197, -21.052197
  248.816, -21.058056
  251.464, -21.061419
  254.140, -21.064613
  256.844, -21.072628
  259.577, -21.088066
  262.339, -21.110828
  265.130, -21.138908
  267.952, -21.171850
  270.803, -21.209236
  273.684, -21.249903
  276.596, -21.292433
  279.540, -21.336010
  282.514, -21.380566
  285.520, -21.426130
  288.558, -21.471365
  291.629, -21.502047
  294.732, -21.494587
  297.868, -21.444105
  301.037, -21.377373
  304.241, -21.338795
  307.478, -21.340118
  310.750, -21.372011
  314.056, -21.414917
  317.398, -21.465292
  320.775, -21.522131
  324.189, -21.580090
  327.638, -21.621296
  331.124, -21.636137
  334.648, -21.625864
  338.209, -21.602715
  341.807, -21.570553
  345.444, -21.532574
  349.120, -21.493147
  352.835, -21.455168
  356.589, -21.419899
  360.384, -21.388056
  364.218, -21.363344
  368.094, -21.350317
  372.011, -21.356249
  375.969, -21.394253
  379.970, -21.463737
  384.013, -21.549316
  388.099, -21.628649
  392.228, -21.692152
  396.402, -21.730307
  400.620, -21.728905
  404.883, -21.682335
  409.191, -21.595234
  413.545, -21.473215
  417.945, -21.346575
  422.393, -21.288027
  426.887, -21.323225
  431.429, -21.395092
  436.020, -21.411045
  440.660, -21.369455
  445.348, -21.337790
  450.087, -21.351053
  454.876, -21.386583
  459.717, -21.404858
  464.608, -21.408152
  469.552, -21.428974
  474.548, -21.480146
  479.598, -21.547291
  484.701, -21.604803
  489.858, -21.627228
  495.071, -21.586193
  500.339, -21.505938
  505.663, -21.441860
  511.043, -21.441700
  516.481, -21.510391
  521.977, -21.617411
  527.531, -21.683945
  533.144, -21.677065
  538.817, -21.679153
  544.550, -21.762470
  550.345, -21.870956
  556.201, -21.915304
  562.119, -21.888815
  568.100, -21.846729
  574.145, -21.832712
  580.255, -21.856636
  586.429, -21.902294
  592.669, -21.938444
  598.975, -21.971855
  605.349, -22.027542
  611.790, -22.127289
  618.300, -22.209780
  624.879, -22.199987
  631.528, -22.132082
  638.248, -22.088999
  645.039, -22.094780
  651.903, -22.110191
  658.839, -22.165806
  665.850, -22.225613
  672.935, -22.241686
  680.095, -22.265301
  687.332, -22.325005
  694.645, -22.366377
  702.037, -22.318464
  709.507, -22.262304
  717.057, -22.279961
  724.686, -22.333214
  732.398, -22.383799
  740.191, -22.404985
  748.067, -22.356318
  756.027, -22.243507
  764.071, -22.159048
  772.201, -22.156521
  780.418, -22.187508
  788.722, -22.156281
  797.115, -22.139208
  805.597, -22.131647
  814.169, -22.127373
  822.832, -22.107363
  831.587, -22.118961
  840.436, -22.121365
  849.379, -22.078669
  858.417, -22.068686
  867.551, -22.053282
  876.782, -22.015341
  886.111, -21.928867
  895.540, -21.894079
  905.069, -21.886324
  914.700, -21.873180
  924.433, -21.819500
  934.269, -21.735374
  944.210, -21.659817
  954.257, -21.624413
  964.411, -21.571665
  974.673, -21.465567
  985.044, -21.399126
  995.526, -21.348328
 1006.119, -21.371717
 1016.824, -21.319338
 1027.644, -21.255377
 1038.579, -21.120972
 1049.630, -21.025465
 1060.799, -20.963579
 1072.086, -20.893190
 1083.494, -20.808546
 1095.023, -20.722425
 1106.674, -20.627893
 1118.450, -20.516575
 1130.351, -20.405764
 1142.379, -20.323580
 1154.534, -20.235323
 1166.819, -20.161488
 1179.235, -20.081289
 1191.783, -20.028482
 1204.464, -19.952089
 1217.280, -19.862253
 1230.233, -19.732409
 1243.323, -19.636148
 1256.553, -19.580265
 1269.923, -19.513277
 1283.436, -19.431028
 1297.093, -19.301542
 1310.895, -19.248795
 1324.843, -19.222071
 1338.940, -19.193373
 1353.188, -19.133982
 1367.586, -19.047615
 1382.138, -18.983601
 1396.845, -18.877670
 1411.708, -18.756681
 1426.730, -18.690308
 1441.911, -18.642437
 1457.254, -18.622234
 1472.760, -18.571842
 1488.431, -18.529060
 1504.269, -18.502068
 1520.275, -18.432085
 1536.452, -18.366892
 1552.801, -18.288567
 1569.323, -18.222891
 1586.022, -18.112497
 1602.898, -18.011726
 1619.954, -17.926113
 1637.191, -17.924585
 1654.612, -17.925117
 1672.218, -17.920250
 1690.011, -17.827017
 1707.994, -17.702316
 1726.168, -17.624487
 1744.536, -17.540979
 1763.099, -17.487371
 1781.859, -17.441547
 1800.819, -17.419954
 1819.981, -17.344980
 1839.347, -17.226263
 1858.918, -17.094484
 1878.698, -16.883579
 1898.689, -16.629829
 1918.892, -16.381744
 1939.310, -16.187616
 1959.946, -16.017387
 1980.801, -15.816455
 2001.878, -15.680847
 2023.179, -15.556108
 2044.707, -15.429566
 2066.464, -15.283320
 2088.452, -15.147709
 2110.674, -15.022462
 2133.133, -14.874633
 2155.831, -14.746796
 2178.771, -14.575927
 2201.954, -14.344566
 2225.384, -14.085284
 2249.063, -13.890865
 2272.995, -13.715414
 2297.181, -13.511890
 2321.624, -13.304235
 2346.328, -13.136162
 2371.294, -12.981100
 2396.526, -12.840960
 2422.027, -12.679595
 2447.798, -12.536122
 2473.844, -12.376213
 2500.168, -12.235533
 2526.771, -12.070157
 2553.657, -11.913255
 2580.830, -11.803345
 2608.291, -11.669157
 2636.045, -11.539539
 2664.094, -11.415616
 2692.442, -11.273689
 2721.091, -11.123131
 2750.045, -11.003278
 2779.307, -10.952907
 2808.881, -10.889444
 2838.769, -10.790685
 2868.975, -10.735356
 2899.503, -10.675931
 2930.355, -10.657562
 2961.536, -10.646370
 2993.049, -10.657413
 3024.896, -10.686154
 3057.083, -10.773391
 3089.612, -10.909014
 3122.488, -11.033098
 3155.713, -11.165019
 3189.292, -11.326251
 3223.228, -11.552464
 3257.525, -11.744143
 3292.187, -11.906549
 3327.218, -12.073317
 3362.621, -12.293683
 3398.402, -12.567203
 3434.563, -12.823286
 3471.108, -13.134832
 3508.043, -13.460230
 3545.371, -13.791230
 3583.096, -14.063514
 3621.222, -14.365392
 3659.754, -14.674916
 3698.696, -14.965339
 3738.052, -15.219971
 3777.827, -15.483433
 3818.026, -15.747040
 3858.652, -16.010159
 3899.710, -16.281591
 3941.206, -16.555252
 3983.142, -16.837120
 4025.525, -17.112671
 4068.360, -17.401440
 4111.649, -17.691339
 4155.400, -17.967390
 4199.616, -18.232340
 4244.302, -18.408516
 4289.464, -18.585711
 4335.106, -18.703300
 4381.235, -18.790617
 4427.854, -18.807892
 4474.969, -18.843081
 4522.585, -18.814590
 4570.708, -18.775484
 4619.343, -18.681095
 4668.496, -18.553926
 4718.171, -18.388130
 4768.376, -18.205774
 4819.114, -18.075752
 4870.393, -17.881552
 4922.216, -17.717888
 4974.592, -17.551908
 5027.524, -17.482456
 5081.021, -17.415129
 5135.085, -17.453754
 5189.726, -17.519800
 5244.948, -17.683683
 5300.757, -17.861031
 5357.161, -18.096708
 5414.164, -18.353651
 5471.774, -18.627468
 5529.997, -18.939104
 5588.839, -19.261097
 5648.308, -19.600122
 5708.409, -19.918440
 5769.150, -20.238472
 5830.538, -20.551861
 5892.578, -20.918568
 5955.279, -21.233875
 6018.646, -21.586281
 6082.688, -21.905420
 6147.412, -22.279913
 6212.824, -22.638632
 6278.932, -22.936455
 6345.744, -23.243088
 6413.267, -23.513111
 6481.507, -23.771591
 6550.475, -23.967205
 6620.176, -24.122066
 6690.619, -24.266970
 6761.811, -24.320885
 6833.760, -24.330290
 6906.476, -24.217232
 6979.965, -24.029318
 7054.236, -23.703056
 7129.297, -23.207037
 7205.157, -22.626141
 7281.825, -21.887236
 7359.308, -21.196611
 7437.615, -20.337774
 7516.756, -19.478537
 7596.739, -18.412304
 7677.572, -17.301516
 7759.267, -16.053474
 7841.830, -14.774519
 7925.271, -13.414638
 8009.601, -12.092307
 8094.828, -10.774248
 8180.962, -9.403617
 8268.013, -8.089964
 8355.989, -6.781656
 8444.902, -5.700844
 8534.761, -4.897925
 8625.576, -4.505344
 8717.357, -4.577227
 8810.115, -5.147171
 8903.860, -6.096678
 8998.603, -7.266493
 9094.354, -8.444988
 9191.123, -9.608647
 9288.922, -10.661959
 9387.762, -11.636302
 9487.653, -12.563937
 9588.607, -13.327991
 9690.636, -14.051962
 9793.750, -14.692431
 9897.962, -15.281967
10003.282, -15.751828
10109.723, -16.099594
10217.297, -16.357607
10326.015, -16.572392
10435.890, -16.777784
10546.934, -16.938246
10659.160, -17.036833
10772.580, -17.094305
10887.206, -17.044271
11003.053, -16.982147
11120.132, -16.864370
11238.457, -16.745293
11358.041, -16.506121
11478.897, -16.154779
11601.040, -15.682211
11724.481, -15.069562
11849.237, -14.303055
11975.320, -13.285899
12102.745, -12.002274
12231.525, -10.600065
12361.677, -9.408797
12493.212, -8.914634
12626.147, -9.324862
12760.497, -10.665870
12896.277, -12.650151
13033.501, -14.747053
13172.186, -16.702389
13312.346, -18.409918
13453.997, -19.947886
13597.155, -21.301674
13741.838, -22.544039
13888.059, -23.719162
14035.836, -24.761484
14185.187, -25.640522
14336.125, -26.393709
14488.670, -27.073853
14642.839, -27.706217
14798.647, -28.338955
14956.113, -28.861261
15115.256, -29.284639
15276.091, -29.671696
15438.638, -30.346304
15602.915, -31.375795
15768.939, -32.602314
15936.730, -33.700611
16106.307, -34.389915
16277.688, -34.686165
16450.893, -34.576569
16625.939, -34.212524
16802.850, -33.782055
16981.643, -33.621395
17162.336, -33.604523
17344.955, -33.298332
17529.516, -32.405838
17716.039, -31.565344
17904.549, -31.528185
18095.064, -32.506721
18287.607, -34.629250
18482.199, -37.415108
18678.859, -40.443096
18877.615, -42.943302
19078.484, -44.947849
19281.490, -46.800198
19486.656, -48.424706
19694.008, -49.846836
19903.563, -50.824291
20115.350, -54.362267
20329.389, -53.662300
20545.705, -52.784786
20764.324, -52.041481
20985.270, -51.734352
21208.564, -51.509399
21434.236, -51.383751
21662.311, -51.099300
21892.811, -50.911705
22125.764, -50.623314
22361.195, -50.475616
22599.131, -50.591576
22839.600, -51.526985
23082.627, -53.490200
23328.240, -56.928169
23576.467, -61.108009
23827.334, -64.224228
