Frequency(Hz),   Magnitude(dB)
   11.804, -17.789352
   11.929, -17.735731
   12.056, -17.616806
   12.184, -17.487803
   12.314, -17.356773
   12.445, -17.223890
   12.578, -17.089376
   12.711, -16.953409
   12.847, -16.816187
   12.983, -16.677771
   13.122, -16.538054
   13.261, -16.396872
   13.402, -16.254250
   13.545, -16.110384
   13.689, -15.965496
   13.835, -15.819786
   13.982, -15.673433
   14.131, -15.526610
   14.281, -15.379270
   14.433, -15.231301
   14.587, -15.082606
   14.742, -14.933263
   14.899, -14.783549
   15.057, -14.633761
   15.217, -14.484097
   15.379, -14.334578
   15.543, -14.185242
   15.708, -14.036120
   15.875, -13.887321
   16.044, -13.739000
   16.215, -13.591295
   16.388, -13.444484
   16.562, -13.298849
   16.738, -13.154569
   16.916, -13.011612
   17.096, -12.869970
   17.278, -12.729762
   17.462, -12.591249
   17.648, -12.454704
   17.836, -12.320234
   18.025, -12.187904
   18.217, -12.057831
   18.411, -11.930322
   18.607, -11.805710
   18.805, -11.684347
   19.005, -11.566595
   19.207, -11.452740
   19.412, -11.342775
   19.618, -11.236616
   19.827, -11.134510
   20.038, -11.037004
   20.251, -10.944566
   20.467, -10.857477
   20.684, -10.775969
   20.905, -10.700379
   21.127, -10.631193
   21.352, -10.568887
   21.579, -10.513762
   21.809, -10.466011
   22.041, -10.425844
   22.275, -10.393641
   22.512, -10.369796
   22.752, -10.354813
   22.994, -10.349319
   23.239, -10.353873
   23.486, -10.368272
   23.736, -10.391754
   23.988, -10.423528
   24.244, -10.463286
   24.501, -10.510959
   24.762, -10.566365
   25.026, -10.629241
   25.292, -10.699331
   25.561, -10.776533
   25.833, -10.860750
   26.108, -10.951763
   26.386, -11.049045
   26.667, -11.151978
   26.950, -11.260304
   27.237, -11.374010
   27.527, -11.492959
   27.820, -11.616569
   28.116, -11.744176
   28.415, -11.875185
   28.717, -12.009156
   29.023, -12.145599
   29.332, -12.284010
   29.644, -12.423791
   29.959, -12.564301
   30.278, -12.704808
   30.600, -12.844337
   30.926, -12.981781
   31.255, -13.116329
   31.587, -13.247294
   31.924, -13.373853
   32.263, -13.494856
   32.607, -13.609066
   32.953, -13.715208
   33.304, -13.812015
   33.658, -13.898129
   34.017, -13.972235
   34.379, -14.033061
   34.744, -14.079391
   35.114, -14.111316
   35.488, -14.131445
   35.865, -14.143264
   36.247, -14.149197
   36.633, -14.149784
   37.022, -14.145257
   37.416, -14.135668
   37.815, -14.121105
   38.217, -14.102044
   38.624, -14.079178
   39.035, -14.053215
   39.450, -14.024590
   39.870, -13.993659
   40.294, -13.960778
   40.723, -13.926478
   41.156, -13.891396
   41.594, -13.856181
   42.036, -13.821384
   42.484, -13.787548
   42.936, -13.755287
   43.393, -13.725465
   43.854, -13.699051
   44.321, -13.676982
   44.793, -13.660138
   45.269, -13.649425
   45.751, -13.645984
   46.238, -13.651194
   46.730, -13.666720
   47.227, -13.691463
   47.730, -13.722563
   48.237, -13.756596
   48.751, -13.792386
   49.269, -13.829659
   49.794, -13.868451
   50.323, -13.908871
   50.859, -13.950791
   51.400, -13.993928
   51.947, -14.037964
   52.500, -14.082551
   53.058, -14.127311
   53.623, -14.171997
   54.194, -14.216784
   54.770, -14.261956
   55.353, -14.307190
   55.942, -14.351528
   56.537, -14.394024
   57.139, -14.434292
   57.747, -14.472224
   58.361, -14.508193
   58.982, -14.543231
   59.610, -14.578367
   60.244, -14.614161
   60.885, -14.650455
   61.533, -14.686666
   62.188, -14.722340
   62.850, -14.757467
   63.518, -14.792139
   64.194, -14.826469
   64.877, -14.860588
   65.568, -14.894610
   66.265, -14.928504
   66.970, -14.962190
   67.683, -14.995625
   68.403, -15.029031
   69.131, -15.062731
   69.867, -15.097013
   70.610, -15.131578
   71.361, -15.165681
   72.121, -15.198676
   72.888, -15.230495
   73.664, -15.261453
   74.448, -15.291943
   75.240, -15.322425
   76.040, -15.353195
   76.849, -15.384295
   77.667, -15.415730
   78.494, -15.447662
   79.329, -15.480569
   80.173, -15.515036
   81.026, -15.551449
   81.888, -15.589819
   82.759, -15.630208
   83.640, -15.672893
   84.530, -15.718430
   85.430, -15.767042
   86.339, -15.818277
   87.257, -15.870980
   88.186, -15.923932
   89.124, -15.976420
   90.072, -16.027973
   91.031, -16.078169
   91.999, -16.126907
   92.978, -16.174168
   93.968, -16.219807
   94.968, -16.263340
   95.978, -16.304453
   96.999, -16.342871
   98.032, -16.378370
   99.075, -16.410879
  100.129, -16.440466
  101.194, -16.467216
  102.271, -16.491169
  103.359, -16.512295
  104.459, -16.529907
  105.571, -16.539345
  106.694, -16.536415
  107.829, -16.519541
  108.977, -16.492172
  110.136, -16.457865
  111.308, -16.419922
  112.492, -16.381733
  113.689, -16.346924
  114.899, -16.319506
  116.122, -16.305082
  117.357, -16.311691
  118.606, -16.337992
  119.868, -16.377335
  121.144, -16.420334
  122.433, -16.465635
  123.735, -16.512362
  125.052, -16.559217
  126.383, -16.604643
  127.727, -16.646751
  129.087, -16.684868
  130.460, -16.720938
  131.848, -16.758062
  133.251, -16.798157
  134.669, -16.840286
  136.102, -16.882471
  137.550, -16.923071
  139.014, -16.961983
  140.493, -16.999714
  141.988, -17.036364
  143.499, -17.072187
  145.026, -17.107502
  146.569, -17.143339
  148.129, -17.180277
  149.705, -17.218954
  151.298, -17.262621
  152.908, -17.317322
  154.535, -17.384211
  156.179, -17.459213
  157.841, -17.537186
  159.520, -17.618052
  161.218, -17.701418
  162.933, -17.780500
  164.667, -17.847286
  166.419, -17.899294
  168.190, -17.950468
  169.979, -18.020336
  171.788, -18.122564
  173.616, -18.251421
  175.463, -18.395630
  177.330, -18.542904
  179.217, -18.679926
  181.124, -18.793196
  183.052, -18.880032
  184.999, -18.946712
  186.968, -19.000202
  188.957, -19.046644
  190.968, -19.091881
  193.000, -19.140253
  195.054, -19.194715
  197.129, -19.258591
  199.227, -19.340240
  201.347, -19.447939
  203.489, -19.582510
  205.654, -19.731871
  207.843, -19.879213
  210.054, -20.003305
  212.289, -20.094667
  214.548, -20.159334
  216.831, -20.214317
  219.138, -20.268421
  221.470, -20.325279
  223.827, -20.389597
  226.208, -20.464211
  228.615, -20.542698
  231.048, -20.616175
  233.506, -20.686373
  235.991, -20.769268
  238.502, -20.875664
  241.040, -20.998072
  243.605, -21.116133
  246.197, -21.202572
  248.816, -21.250937
  251.464, -21.271370
  254.140, -21.288603
  256.844, -21.314013
  259.577, -21.353188
  262.339, -21.404922
  265.130, -21.461651
  267.952, -21.507191
  270.803, -21.525093
  273.684, -21.513603
  276.596, -21.487221
  279.540, -21.465948
  282.514, -21.460875
  285.520, -21.473070
  288.558, -21.492241
  291.629, -21.497564
  294.732, -21.469315
  297.868, -21.407169
  301.037, -21.334391
  304.241, -21.285198
  307.478, -21.268831
  310.750, -21.277245
  314.056, -21.293648
  317.398, -21.314964
  320.775, -21.340532
  324.189, -21.365885
  327.638, -21.369764
  331.124, -21.330637
  334.648, -21.257431
  338.209, -21.208084
  341.807, -21.242670
  345.444, -21.360559
  349.120, -21.489408
  352.835, -21.543249
  356.589, -21.509621
  360.384, -21.450932
  364.218, -21.435537
  368.094, -21.477594
  372.011, -21.538391
  375.969, -21.566210
  379.970, -21.547709
  384.013, -21.522852
  388.099, -21.552231
  392.228, -21.646137
  396.402, -21.737831
  400.620, -21.746376
  404.883, -21.672112
  409.191, -21.587137
  413.545, -21.540878
  417.945, -21.537453
  422.393, -21.564535
  426.887, -21.614210
  431.429, -21.651688
  436.020, -21.636141
  440.660, -21.571577
  445.348, -21.509623
  450.087, -21.479713
  454.876, -21.472939
  459.717, -21.468077
  464.608, -21.460489
  469.552, -21.438511
  474.548, -21.400133
  479.598, -21.354753
  484.701, -21.321733
  489.858, -21.318380
  495.071, -21.361689
  500.339, -21.421061
  505.663, -21.425285
  511.043, -21.371290
  516.481, -21.358643
  521.977, -21.437405
  527.531, -21.546482
  533.144, -21.613350
  538.817, -21.655588
  544.550, -21.708035
  550.345, -21.741190
  556.201, -21.734240
  562.119, -21.714054
  568.100, -21.733271
  574.145, -21.819399
  580.255, -21.946825
  586.429, -22.052412
  592.669, -22.099987
  598.975, -22.099247
  605.349, -22.095043
  611.790, -22.099756
  618.300, -22.123959
  624.879, -22.171930
  631.528, -22.214184
  638.248, -22.221045
  645.039, -22.175737
  651.903, -22.117449
  658.839, -22.090761
  665.850, -22.100328
  672.935, -22.125252
  680.095, -22.160158
  687.332, -22.191166
  694.645, -22.176653
  702.037, -22.163225
  709.507, -22.188309
  717.057, -22.243816
  724.686, -22.280924
  732.398, -22.308487
  740.191, -22.336264
  748.067, -22.335709
  756.027, -22.315109
  764.071, -22.303778
  772.201, -22.277018
  780.418, -22.226503
  788.722, -22.172426
  797.115, -22.194683
  805.597, -22.213863
  814.169, -22.153971
  822.832, -22.016363
  831.587, -21.919529
  840.436, -21.922247
  849.379, -21.966526
  858.417, -21.955856
  867.551, -21.977617
  876.782, -22.004469
  886.111, -22.030329
  895.540, -21.927553
  905.069, -21.812929
  914.700, -21.766741
  924.433, -21.737532
  934.269, -21.733143
  944.210, -21.703238
  954.257, -21.644564
  964.411, -21.529398
  974.673, -21.396606
  985.044, -21.301146
  995.526, -21.240686
 1006.119, -21.184292
 1016.824, -21.110321
 1027.644, -21.002272
 1038.579, -20.921768
 1049.630, -20.891874
 1060.799, -20.903917
 1072.086, -20.893343
 1083.494, -20.816700
 1095.023, -20.685938
 1106.674, -20.558733
 1118.450, -20.466536
 1130.351, -20.390133
 1142.379, -20.297840
 1154.534, -20.191273
 1166.819, -20.082542
 1179.235, -19.993341
 1191.783, -19.896685
 1204.464, -19.899866
 1217.280, -19.895985
 1230.233, -19.838762
 1243.323, -19.671024
 1256.553, -19.532143
 1269.923, -19.446215
 1283.436, -19.376736
 1297.093, -19.301933
 1310.895, -19.235777
 1324.843, -19.122593
 1338.940, -19.047050
 1353.188, -18.994011
 1367.586, -18.967716
 1382.138, -18.881252
 1396.845, -18.809330
 1411.708, -18.766476
 1426.730, -18.716066
 1441.911, -18.596909
 1457.254, -18.475302
 1472.760, -18.424786
 1488.431, -18.400867
 1504.269, -18.368391
 1520.275, -18.291361
 1536.452, -18.253071
 1552.801, -18.203356
 1569.323, -18.143040
 1586.022, -18.045158
 1602.898, -17.970642
 1619.954, -17.883007
 1637.191, -17.802734
 1654.612, -17.759293
 1672.218, -17.733978
 1690.011, -17.664635
 1707.994, -17.581791
 1726.168, -17.539267
 1744.536, -17.493887
 1763.099, -17.400034
 1781.859, -17.301119
 1800.819, -17.240911
 1819.981, -17.146902
 1839.347, -17.076880
 1858.918, -17.052589
 1878.698, -17.034737
 1898.689, -16.896830
 1918.892, -16.670813
 1939.310, -16.382423
 1959.946, -16.131008
 1980.801, -15.885882
 2001.878, -15.660896
 2023.179, -15.371840
 2044.707, -15.134662
 2066.464, -14.966748
 2088.452, -14.802879
 2110.674, -14.642728
 2133.133, -14.512742
 2155.831, -14.429422
 2178.771, -14.256818
 2201.954, -14.071672
 2225.384, -13.894855
 2249.063, -13.755520
 2272.995, -13.630461
 2297.181, -13.480648
 2321.624, -13.290970
 2346.328, -13.083443
 2371.294, -12.902660
 2396.526, -12.769348
 2422.027, -12.646617
 2447.798, -12.477633
 2473.844, -12.299385
 2500.168, -12.130705
 2526.771, -12.007129
 2553.657, -11.886914
 2580.830, -11.757235
 2608.291, -11.607559
 2636.045, -11.445049
 2664.094, -11.312390
 2692.442, -11.209393
 2721.091, -11.111229
 2750.045, -10.988305
 2779.307, -10.855651
 2808.881, -10.773010
 2838.769, -10.706075
 2868.975, -10.632674
 2899.503, -10.575881
 2930.355, -10.547670
 2961.536, -10.554960
 2993.049, -10.570210
 3024.896, -10.645690
 3057.083, -10.739488
 3089.612, -10.830259
 3122.488, -10.969450
 3155.713, -11.115552
 3189.292, -11.271987
 3223.228, -11.393888
 3257.525, -11.577270
 3292.187, -11.788427
 3327.218, -12.015514
 3362.621, -12.193357
 3398.402, -12.433259
 3434.563, -12.730474
 3471.108, -13.041496
 3508.043, -13.320641
 3545.371, -13.633464
 3583.096, -13.974240
 3621.222, -14.270024
 3659.754, -14.580140
 3698.696, -14.895024
 3738.052, -15.195604
 3777.827, -15.447813
 3818.026, -15.737522
 3858.652, -16.010921
 3899.710, -16.314474
 3941.206, -16.593523
 3983.142, -16.860790
 4025.525, -17.122026
 4068.360, -17.395288
 4111.649, -17.690796
 4155.400, -17.948832
 4199.616, -18.224510
 4244.302, -18.429602
 4289.464, -18.599586
 4335.106, -18.739426
 4381.235, -18.815498
 4427.854, -18.868689
 4474.969, -18.845932
 4522.585, -18.838823
 4570.708, -18.726437
 4619.343, -18.616894
 4668.496, -18.480360
 4718.171, -18.359577
 4768.376, -18.190964
 4819.114, -18.047094
 4870.393, -17.856155
 4922.216, -17.740604
 4974.592, -17.584114
 5027.524, -17.524494
 5081.021, -17.451492
 5135.085, -17.490089
 5189.726, -17.585251
 5244.948, -17.709967
 5300.757, -17.901800
 5357.161, -18.111242
 5414.164, -18.407896
 5471.774, -18.692308
 5529.997, -18.985806
 5588.839, -19.309162
 5648.308, -19.640892
 5708.409, -19.991568
 5769.150, -20.322491
 5830.538, -20.638435
 5892.578, -20.994968
 5955.279, -21.330864
 6018.646, -21.671749
 6082.688, -22.022102
 6147.412, -22.405531
 6212.824, -22.793823
 6278.932, -23.076855
 6345.744, -23.394505
 6413.267, -23.679403
 6481.507, -24.031734
 6550.475, -24.270426
 6620.176, -24.459648
 6690.619, -24.545614
 6761.811, -24.587246
 6833.760, -24.596003
 6906.476, -24.517515
 6979.965, -24.366480
 7054.236, -24.057575
 7129.297, -23.570807
 7205.157, -22.934025
 7281.825, -22.259693
 7359.308, -21.574591
 7437.615, -20.792839
 7516.756, -19.930998
 7596.739, -18.893347
 7677.572, -17.804998
 7759.267, -16.596478
 7841.830, -15.398937
 7925.271, -14.100596
 8009.601, -12.804893
 8094.828, -11.519354
 8180.962, -10.222051
 8268.013, -8.954603
 8355.989, -7.606489
 8444.902, -6.355637
 8534.761, -5.320985
 8625.576, -4.630619
 8717.357, -4.394836
 8810.115, -4.649225
 8903.860, -5.335736
 8998.603, -6.359463
 9094.354, -7.509481
 9191.123, -8.735539
 9288.922, -9.836687
 9387.762, -10.907113
 9487.653, -11.892989
 9588.607, -12.759373
 9690.636, -13.509254
 9793.750, -14.171792
 9897.962, -14.740242
10003.282, -15.260619
10109.723, -15.694730
10217.297, -16.006044
10326.015, -16.275665
10435.890, -16.516325
10546.934, -16.745499
10659.160, -16.863369
10772.580, -16.955221
10887.206, -17.012123
11003.053, -17.025377
11120.132, -16.941847
11238.457, -16.807177
11358.041, -16.633484
11478.897, -16.336149
11601.040, -15.967016
11724.481, -15.434466
11849.237, -14.735088
11975.320, -13.806767
12102.745, -12.636677
12231.525, -11.278271
12361.677, -9.957093
12493.212, -9.078399
12626.147, -9.040876
12760.497, -9.917169
12896.277, -11.631846
13033.501, -13.680540
13172.186, -15.702518
13312.346, -17.539185
13453.997, -19.198250
13597.155, -20.643152
13741.838, -21.990688
13888.059, -23.221706
14035.836, -24.347761
14185.187, -25.323711
14336.125, -26.149015
14488.670, -26.849215
14642.839, -27.496389
14798.647, -28.150118
14956.113, -28.689610
15115.256, -29.206915
15276.091, -29.668053
15438.638, -30.355488
15602.915, -31.405350
15768.939, -32.720837
15936.730, -33.879234
16106.307, -34.634605
16277.688, -34.925377
16450.893, -34.858963
16625.939, -34.591896
16802.850, -34.340908
16981.643, -34.382874
17162.336, -34.624325
17344.955, -34.512901
17529.516, -33.756859
17716.039, -32.736504
17904.549, -32.200573
18095.064, -32.434204
18287.607, -33.789890
18482.199, -36.146950
18678.859, -39.196968
18877.615, -41.706806
19078.484, -43.852852
19281.490, -45.997471
19486.656, -47.955345
19694.008, -49.176479
19903.563, -49.824200
20115.350, -53.278179
20329.389, -52.786636
20545.705, -52.120171
20764.324, -51.449451
20985.270, -51.056423
21208.564, -50.828659
21434.236, -50.803165
21662.311, -50.747040
21892.811, -50.551624
22125.764, -50.374329
22361.195, -50.235184
22599.131, -50.272655
22839.600, -50.786114
23082.627, -52.011482
23328.240, -54.359188
23576.467, -57.524815
23827.334, -60.779793
