Frequency(Hz),   Magnitude(dB)
   11.804, -15.181444
   11.929, -15.244287
   12.056, -15.328473
   12.184, -15.414248
   12.314, -15.498796
   12.445, -15.582225
   12.578, -15.664691
   12.711, -15.746344
   12.847, -15.827292
   12.983, -15.907556
   13.122, -15.986935
   13.261, -16.065212
   13.402, -16.142336
   13.545, -16.218426
   13.689, -16.293627
   13.835, -16.368044
   13.982, -16.441771
   14.131, -16.514885
   14.281, -16.587250
   14.433, -16.658646
   14.587, -16.728868
   14.742, -16.797878
   14.899, -16.865860
   15.057, -16.932966
   15.217, -16.999269
   15.379, -17.064671
   15.543, -17.129063
   15.708, -17.192324
   15.875, -17.254431
   16.044, -17.315355
   16.215, -17.375103
   16.388, -17.433769
   16.562, -17.491449
   16.738, -17.548136
   16.916, -17.603630
   17.096, -17.657692
   17.278, -17.710260
   17.462, -17.761356
   17.648, -17.811035
   17.836, -17.859165
   18.025, -17.905582
   18.217, -17.950136
   18.411, -17.992868
   18.607, -18.033833
   18.805, -18.073107
   19.005, -18.110756
   19.207, -18.146761
   19.412, -18.180782
   19.618, -18.212400
   19.827, -18.241539
   20.038, -18.268364
   20.251, -18.292978
   20.467, -18.315268
   20.684, -18.335068
   20.905, -18.352318
   21.127, -18.367046
   21.352, -18.379278
   21.579, -18.388863
   21.809, -18.395498
   22.041, -18.398914
   22.275, -18.398937
   22.512, -18.395451
   22.752, -18.388384
   22.994, -18.377798
   23.239, -18.363611
   23.486, -18.344860
   23.736, -18.320126
   23.988, -18.288250
   24.244, -18.248999
   24.501, -18.202524
   24.762, -18.148916
   25.026, -18.088242
   25.292, -18.020603
   25.561, -17.946295
   25.833, -17.865650
   26.108, -17.778917
   26.386, -17.686104
   26.667, -17.587191
   26.950, -17.482533
   27.237, -17.372793
   27.527, -17.258577
   27.820, -17.140108
   28.116, -17.017574
   28.415, -16.891321
   28.717, -16.761877
   29.023, -16.629843
   29.332, -16.495827
   29.644, -16.360453
   29.959, -16.224379
   30.278, -16.088264
   30.600, -15.952600
   30.926, -15.817837
   31.255, -15.684813
   31.587, -15.554633
   31.924, -15.428306
   32.263, -15.306675
   32.607, -15.190611
   32.953, -15.081032
   33.304, -14.978997
   33.658, -14.885621
   34.017, -14.802198
   34.379, -14.730206
   34.744, -14.671947
   35.114, -14.636590
   35.488, -14.624666
   35.865, -14.631211
   36.247, -14.644917
   36.633, -14.663471
   37.022, -14.686496
   37.416, -14.713490
   37.815, -14.743940
   38.217, -14.777675
   38.624, -14.814690
   39.035, -14.854931
   39.450, -14.898023
   39.870, -14.943433
   40.294, -14.990603
   40.723, -15.039054
   41.156, -15.088343
   41.594, -15.137996
   42.036, -15.187342
   42.484, -15.235617
   42.936, -15.282082
   43.393, -15.326112
   43.854, -15.367151
   44.321, -15.404487
   44.793, -15.437243
   45.269, -15.464505
   45.751, -15.485459
   46.238, -15.499653
   46.730, -15.509458
   47.227, -15.516930
   47.730, -15.522585
   48.237, -15.524364
   48.751, -15.521197
   49.269, -15.513286
   49.794, -15.501266
   50.323, -15.485867
   50.859, -15.467629
   51.400, -15.447022
   51.947, -15.424482
   52.500, -15.400510
   53.058, -15.375604
   53.623, -15.350462
   54.194, -15.326289
   54.770, -15.304418
   55.353, -15.285679
   55.942, -15.270327
   56.537, -15.258682
   57.139, -15.251743
   57.747, -15.250794
   58.361, -15.257285
   58.982, -15.272182
   59.610, -15.295664
   60.244, -15.327205
   60.885, -15.365863
   61.533, -15.410314
   62.188, -15.459282
   62.850, -15.511871
   63.518, -15.567219
   64.194, -15.624456
   64.877, -15.682598
   65.568, -15.740634
   66.265, -15.797282
   66.970, -15.851167
   67.683, -15.900852
   68.403, -15.945073
   69.131, -15.982483
   69.867, -16.010653
   70.610, -16.027269
   71.361, -16.032639
   72.121, -16.029392
   72.888, -16.020290
   73.664, -16.006500
   74.448, -15.989136
   75.240, -15.969407
   76.040, -15.948431
   76.849, -15.927116
   77.667, -15.906396
   78.494, -15.887402
   79.329, -15.871661
   80.173, -15.860867
   81.026, -15.856672
   81.888, -15.860958
   82.759, -15.872375
   83.640, -15.888137
   84.530, -15.905216
   85.430, -15.923521
   86.339, -15.943027
   87.257, -15.963105
   88.186, -15.983079
   89.124, -16.002808
   90.072, -16.022432
   91.031, -16.042206
   91.999, -16.062696
   92.978, -16.084389
   93.968, -16.107082
   94.968, -16.130417
   95.978, -16.154306
   96.999, -16.178915
   98.032, -16.203972
   99.075, -16.229252
  100.129, -16.254700
  101.194, -16.280239
  102.271, -16.305727
  103.359, -16.330935
  104.459, -16.354479
  105.571, -16.370020
  106.694, -16.375235
  107.829, -16.371397
  108.977, -16.364475
  110.136, -16.356089
  111.308, -16.347033
  112.492, -16.337978
  113.689, -16.329710
  114.899, -16.323092
  116.122, -16.318596
  117.357, -16.315010
  118.606, -16.311718
  119.868, -16.308832
  121.144, -16.307953
  122.433, -16.309586
  123.735, -16.313902
  125.052, -16.320684
  126.383, -16.329670
  127.727, -16.342663
  129.087, -16.371214
  130.460, -16.421370
  131.848, -16.493437
  133.251, -16.577581
  134.669, -16.668692
  136.102, -16.761211
  137.550, -16.849686
  139.014, -16.930101
  140.493, -17.000944
  141.988, -17.062571
  143.499, -17.117268
  145.026, -17.167374
  146.569, -17.216028
  148.129, -17.266079
  149.705, -17.320349
  151.298, -17.381258
  152.908, -17.449730
  154.535, -17.525068
  156.179, -17.604877
  157.841, -17.688152
  159.520, -17.774530
  161.218, -17.862808
  162.933, -17.944427
  164.667, -18.006798
  166.419, -18.043814
  168.190, -18.069344
  169.979, -18.107931
  171.788, -18.179394
  173.616, -18.284237
  175.463, -18.414484
  177.330, -18.557905
  179.217, -18.699467
  181.124, -18.825068
  183.052, -18.931997
  184.999, -19.026354
  186.968, -19.116093
  188.957, -19.210915
  190.968, -19.318045
  193.000, -19.437857
  195.054, -19.562796
  197.129, -19.683548
  199.227, -19.790928
  201.347, -19.883682
  203.489, -19.963875
  205.654, -20.033537
  207.843, -20.090147
  210.054, -20.132452
  212.289, -20.156094
  214.548, -20.159210
  216.831, -20.146521
  219.138, -20.134277
  221.470, -20.149002
  223.827, -20.209858
  226.208, -20.315638
  228.615, -20.440712
  231.048, -20.559479
  233.506, -20.665173
  235.991, -20.765635
  238.502, -20.868902
  241.040, -20.972704
  243.605, -21.069927
  246.197, -21.143559
  248.816, -21.186354
  251.464, -21.197107
  254.140, -21.185205
  256.844, -21.150972
  259.577, -21.086578
  262.339, -20.991714
  265.130, -20.883581
  267.952, -20.810827
  270.803, -20.820967
  273.684, -20.919655
  276.596, -21.065210
  279.540, -21.188267
  282.514, -21.254118
  285.520, -21.268469
  288.558, -21.263454
  291.629, -21.261206
  294.732, -21.267384
  297.868, -21.282581
  301.037, -21.307030
  304.241, -21.349171
  307.478, -21.418139
  310.750, -21.509741
  314.056, -21.594885
  317.398, -21.635180
  320.775, -21.623821
  324.189, -21.587566
  327.638, -21.563646
  331.124, -21.565641
  334.648, -21.585247
  338.209, -21.601093
  341.807, -21.593565
  345.444, -21.563358
  349.120, -21.542099
  352.835, -21.588024
  356.589, -21.714622
  360.384, -21.855270
  364.218, -21.889009
  368.094, -21.789417
  372.011, -21.629457
  375.969, -21.489897
  379.970, -21.392059
  384.013, -21.335121
  388.099, -21.322166
  392.228, -21.347694
  396.402, -21.399086
  400.620, -21.466358
  404.883, -21.541382
  409.191, -21.603035
  413.545, -21.626194
  417.945, -21.593500
  422.393, -21.483273
  426.887, -21.303236
  431.429, -21.145926
  436.020, -21.101254
  440.660, -21.171406
  445.348, -21.278814
  450.087, -21.368486
  454.876, -21.436537
  459.717, -21.483984
  464.608, -21.508068
  469.552, -21.499584
  474.548, -21.465593
  479.598, -21.444685
  484.701, -21.467817
  489.858, -21.507637
  495.071, -21.506685
  500.339, -21.476431
  505.663, -21.486616
  511.043, -21.553175
  516.481, -21.618414
  521.977, -21.641586
  527.531, -21.649603
  533.144, -21.679401
  538.817, -21.735792
  544.550, -21.806816
  550.345, -21.870422
  556.201, -21.916487
  562.119, -21.966787
  568.100, -22.035900
  574.145, -22.046030
  580.255, -21.961588
  586.429, -21.833973
  592.669, -21.766735
  598.975, -21.782131
  605.349, -21.839811
  611.790, -21.898750
  618.300, -21.965868
  624.879, -22.081818
  631.528, -22.213411
  638.248, -22.270388
  645.039, -22.170635
  651.903, -22.001225
  658.839, -21.889870
  665.850, -21.929192
  672.935, -22.090090
  680.095, -22.238216
  687.332, -22.329067
  694.645, -22.390247
  702.037, -22.424980
  709.507, -22.404306
  717.057, -22.344152
  724.686, -22.312529
  732.398, -22.289413
  740.191, -22.204342
  748.067, -22.141254
  756.027, -22.140682
  764.071, -22.194487
  772.201, -22.205406
  780.418, -22.157124
  788.722, -22.076906
  797.115, -22.026388
  805.597, -22.019295
  814.169, -22.052128
  822.832, -22.068892
  831.587, -22.071621
  840.436, -22.092468
  849.379, -22.117846
  858.417, -22.065109
  867.551, -21.932871
  876.782, -21.826151
  886.111, -21.815704
  895.540, -21.820370
  905.069, -21.755461
  914.700, -21.702463
  924.433, -21.652826
  934.269, -21.630327
  944.210, -21.593307
  954.257, -21.580925
  964.411, -21.538801
  974.673, -21.483229
  985.044, -21.395292
  995.526, -21.316389
 1006.119, -21.236391
 1016.824, -21.186214
 1027.644, -21.145533
 1038.579, -21.092094
 1049.630, -21.034859
 1060.799, -20.972248
 1072.086, -20.884588
 1083.494, -20.745747
 1095.023, -20.598114
 1106.674, -20.498671
 1118.450, -20.413139
 1130.351, -20.332560
 1142.379, -20.249947
 1154.534, -20.201601
 1166.819, -20.174601
 1179.235, -20.092619
 1191.783, -20.012108
 1204.464, -19.939100
 1217.280, -19.837782
 1230.233, -19.708433
 1243.323, -19.593910
 1256.553, -19.547974
 1269.923, -19.494318
 1283.436, -19.405661
 1297.093, -19.315285
 1310.895, -19.247869
 1324.843, -19.194290
 1338.940, -19.114904
 1353.188, -19.022583
 1367.586, -18.919994
 1382.138, -18.818024
 1396.845, -18.735237
 1411.708, -18.665634
 1426.730, -18.664473
 1441.911, -18.610317
 1457.254, -18.536785
 1472.760, -18.438690
 1488.431, -18.425167
 1504.269, -18.399300
 1520.275, -18.316891
 1536.452, -18.209221
 1552.801, -18.146250
 1569.323, -18.066545
 1586.022, -17.988110
 1602.898, -17.913803
 1619.954, -17.870571
 1637.191, -17.800608
 1654.612, -17.727879
 1672.218, -17.668575
 1690.011, -17.637169
 1707.994, -17.585739
 1726.168, -17.546715
 1744.536, -17.456532
 1763.099, -17.363546
 1781.859, -17.295483
 1800.819, -17.253777
 1819.981, -17.210855
 1839.347, -17.134377
 1858.918, -17.042767
 1878.698, -16.953512
 1898.689, -16.823711
 1918.892, -16.686768
 1939.310, -16.491610
 1959.946, -16.197031
 1980.801, -15.888085
 2001.878, -15.595665
 2023.179, -15.383188
 2044.707, -15.159543
 2066.464, -14.959167
 2088.452, -14.810995
 2110.674, -14.726804
 2133.133, -14.604838
 2155.831, -14.458538
 2178.771, -14.254939
 2201.954, -14.127625
 2225.384, -13.944875
 2249.063, -13.788527
 2272.995, -13.588346
 2297.181, -13.432774
 2321.624, -13.268377
 2346.328, -13.091806
 2371.294, -12.913847
 2396.526, -12.738831
 2422.027, -12.600926
 2447.798, -12.451055
 2473.844, -12.300444
 2500.168, -12.133356
 2526.771, -11.976697
 2553.657, -11.842177
 2580.830, -11.709227
 2608.291, -11.602676
 2636.045, -11.504940
 2664.094, -11.381675
 2692.442, -11.224451
 2721.091, -11.073969
 2750.045, -10.981753
 2779.307, -10.902801
 2808.881, -10.797710
 2838.769, -10.712302
 2868.975, -10.634582
 2899.503, -10.590177
 2930.355, -10.537905
 2961.536, -10.540884
 2993.049, -10.553043
 3024.896, -10.597072
 3057.083, -10.682658
 3089.612, -10.810766
 3122.488, -10.953571
 3155.713, -11.081077
 3189.292, -11.242509
 3223.228, -11.437547
 3257.525, -11.629426
 3292.187, -11.805202
 3327.218, -11.970301
 3362.621, -12.191764
 3398.402, -12.456061
 3434.563, -12.747679
 3471.108, -13.024893
 3508.043, -13.333963
 3545.371, -13.648980
 3583.096, -13.954900
 3621.222, -14.252477
 3659.754, -14.548821
 3698.696, -14.862390
 3738.052, -15.140425
 3777.827, -15.436598
 3818.026, -15.742634
 3858.652, -16.028345
 3899.710, -16.311232
 3941.206, -16.579866
 3983.142, -16.877785
 4025.525, -17.181231
 4068.360, -17.420294
 4111.649, -17.719053
 4155.400, -17.988152
 4199.616, -18.261446
 4244.302, -18.434246
 4289.464, -18.597927
 4335.106, -18.734934
 4381.235, -18.812599
 4427.854, -18.831715
 4474.969, -18.818485
 4522.585, -18.810986
 4570.708, -18.753531
 4619.343, -18.673914
 4668.496, -18.528063
 4718.171, -18.364632
 4768.376, -18.190849
 4819.114, -18.015509
 4870.393, -17.892061
 4922.216, -17.773821
 4974.592, -17.628489
 5027.524, -17.529377
 5081.021, -17.432095
 5135.085, -17.495859
 5189.726, -17.553789
 5244.948, -17.711874
 5300.757, -17.858561
 5357.161, -18.113255
 5414.164, -18.361357
 5471.774, -18.665062
 5529.997, -18.941593
 5588.839, -19.275745
 5648.308, -19.617508
 5708.409, -19.988258
 5769.150, -20.329281
 5830.538, -20.597265
 5892.578, -20.926960
 5955.279, -21.303102
 6018.646, -21.705109
 6082.688, -22.065876
 6147.412, -22.420952
 6212.824, -22.805048
 6278.932, -23.101803
 6345.744, -23.430008
 6413.267, -23.680834
 6481.507, -23.950262
 6550.475, -24.184338
 6620.176, -24.381924
 6690.619, -24.551565
 6761.811, -24.622847
 6833.760, -24.668625
 6906.476, -24.579790
 6979.965, -24.405581
 7054.236, -24.086948
 7129.297, -23.591825
 7205.157, -22.987965
 7281.825, -22.310019
 7359.308, -21.589029
 7437.615, -20.795567
 7516.756, -19.905859
 7596.739, -18.886433
 7677.572, -17.793201
 7759.267, -16.574896
 7841.830, -15.375420
 7925.271, -14.101731
 8009.601, -12.836545
 8094.828, -11.539314
 8180.962, -10.207698
 8268.013, -8.936579
 8355.989, -7.623483
 8444.902, -6.406754
 8534.761, -5.382688
 8625.576, -4.678736
 8717.357, -4.421439
 8810.115, -4.657631
 8903.860, -5.356922
 8998.603, -6.379671
 9094.354, -7.518755
 9191.123, -8.715856
 9288.922, -9.843315
 9387.762, -10.931699
 9487.653, -11.908658
 9588.607, -12.796204
 9690.636, -13.571367
 9793.750, -14.253074
 9897.962, -14.810928
10003.282, -15.301465
10109.723, -15.664641
10217.297, -16.024508
10326.015, -16.310284
10435.890, -16.527903
10546.934, -16.679857
10659.160, -16.824440
10772.580, -16.956375
10887.206, -16.997780
11003.053, -17.008297
11120.132, -16.925329
11238.457, -16.795923
11358.041, -16.607325
11478.897, -16.336512
11601.040, -15.911474
11724.481, -15.389396
11849.237, -14.680176
11975.320, -13.773713
12102.745, -12.622181
12231.525, -11.319899
12361.677, -9.988173
12493.212, -9.096051
12626.147, -9.019400
12760.497, -9.901843
12896.277, -11.609797
13033.501, -13.714663
13172.186, -15.752024
13312.346, -17.580908
13453.997, -19.201654
13597.155, -20.666031
13741.838, -22.025621
13888.059, -23.235134
14035.836, -24.356955
14185.187, -25.296322
14336.125, -26.111040
14488.670, -26.850187
14642.839, -27.528290
14798.647, -28.157461
14956.113, -28.693834
15115.256, -29.179602
15276.091, -29.689968
15438.638, -30.391556
15602.915, -31.416117
15768.939, -32.714706
15936.730, -33.870564
16106.307, -34.631012
16277.688, -34.933548
16450.893, -34.957485
16625.939, -34.719967
16802.850, -34.375423
16981.643, -34.304482
17162.336, -34.351135
17344.955, -34.325180
17529.516, -33.638870
17716.039, -32.774841
17904.549, -32.221039
18095.064, -32.555351
18287.607, -33.917950
18482.199, -36.285538
18678.859, -38.896950
18877.615, -41.396492
19078.484, -43.641048
19281.490, -45.712227
19486.656, -47.680000
19694.008, -49.215366
19903.563, -50.089485
20115.350, -53.639965
20329.389, -53.044327
20545.705, -52.136860
20764.324, -51.339664
20985.270, -50.906952
21208.564, -50.684288
21434.236, -50.515690
21662.311, -50.423813
21892.811, -50.248413
22125.764, -49.891884
22361.195, -49.668381
22599.131, -49.905682
22839.600, -50.774307
23082.627, -52.054184
23328.240, -54.049358
23576.467, -56.544769
23827.334, -59.281521
